# Version 2.1 - nm, norm@500 to 1, cut digits, C.dat
# Wavelength(nm)  Flambda(ergs/cm^s/s/nm)
300.00 0.2966391
300.10 0.2973755
300.20 0.2981119
300.30 0.2988483
300.40 0.2995848
300.50 0.3003214
300.60 0.301058
300.70 0.3017947
300.80 0.3025315
300.90 0.3032683
301.00 0.3040051
301.10 0.304742
301.20 0.305479
301.30 0.306216
301.40 0.3069973
301.50 0.3083661
301.60 0.309735
301.70 0.311104
301.80 0.3124731
301.90 0.3138423
302.00 0.3152116
302.10 0.316581
302.20 0.3179505
302.30 0.3193201
302.40 0.3206899
302.50 0.3220597
302.60 0.3234296
302.70 0.3247997
302.80 0.3261698
302.90 0.32754
303.00 0.3285544
303.10 0.3295541
303.20 0.3305538
303.30 0.3315536
303.40 0.3325534
303.50 0.3335534
303.60 0.3345534
303.70 0.3355535
303.80 0.3365536
303.90 0.3375539
304.00 0.3385542
304.10 0.3395546
304.20 0.340555
304.30 0.3415556
304.40 0.3425562
304.50 0.3429623
304.60 0.3431909
304.70 0.3434195
304.80 0.3436481
304.90 0.3438767
305.00 0.3441053
305.10 0.344334
305.20 0.3445627
305.30 0.3447914
305.40 0.3450201
305.50 0.3452488
305.60 0.3454775
305.70 0.3457063
305.80 0.345935
305.90 0.3461638
306.00 0.346538
306.10 0.3470577
306.20 0.3475774
306.30 0.3480972
306.40 0.348617
306.50 0.3491368
306.60 0.3496567
306.70 0.3501766
306.80 0.3506966
306.90 0.3512166
307.00 0.3517366
307.10 0.3522567
307.20 0.3527768
307.30 0.3532969
307.40 0.3538171
307.50 0.3541565
307.60 0.3535463
307.70 0.3529361
307.80 0.3523258
307.90 0.3517155
308.00 0.3511051
308.10 0.3504947
308.20 0.3498842
308.30 0.3492737
308.40 0.3486632
308.50 0.3480526
308.60 0.3474419
308.70 0.3468312
308.80 0.3462205
308.90 0.3456097
309.00 0.3449988
309.10 0.3456558
309.20 0.3467584
309.30 0.347861
309.40 0.3489637
309.50 0.3500665
309.60 0.3511694
309.70 0.3522724
309.80 0.3533754
309.90 0.3544785
310.00 0.3555818
310.10 0.3566851
310.20 0.3577884
310.30 0.3588919
310.40 0.3599955
310.50 0.3610991
310.60 0.3622309
310.70 0.3634469
310.80 0.364663
310.90 0.3658792
311.00 0.3670955
311.10 0.3683119
311.20 0.3695284
311.30 0.370745
311.40 0.3719617
311.50 0.3731784
311.60 0.3743953
311.70 0.3756122
311.80 0.3768293
311.90 0.3780464
312.00 0.3792636
312.10 0.3804809
312.20 0.380446
312.30 0.3797943
312.40 0.3791425
312.50 0.3784907
312.60 0.3778388
312.70 0.3771868
312.80 0.3765349
312.90 0.3758828
313.00 0.3752307
313.10 0.3745786
313.20 0.3739264
313.30 0.3732741
313.40 0.3726218
313.50 0.3719695
313.60 0.3713171
313.70 0.3706625
313.80 0.3699043
313.90 0.369146
314.00 0.3683876
314.10 0.3676292
314.20 0.3668707
314.30 0.3661122
314.40 0.3653536
314.50 0.3645949
314.60 0.3638362
314.70 0.3630774
314.80 0.3623186
314.90 0.3615597
315.00 0.3608007
315.10 0.3600417
315.20 0.3592826
315.30 0.3588276
315.40 0.3591171
315.50 0.3594066
315.60 0.3596961
315.70 0.3599857
315.80 0.3602752
315.90 0.3605648
316.00 0.3608544
316.10 0.3611441
316.20 0.3614337
316.30 0.3617234
316.40 0.3620131
316.50 0.3623028
316.60 0.3625926
316.70 0.3628823
316.80 0.3631721
316.90 0.3635531
317.00 0.3640329
317.10 0.3645128
317.20 0.3649927
317.30 0.3654726
317.40 0.3659525
317.50 0.3664325
317.60 0.3669126
317.70 0.3673926
317.80 0.3678727
317.90 0.3683529
318.00 0.368833
318.10 0.3693133
318.20 0.3697935
318.30 0.3702738
318.40 0.3707541
318.50 0.3710669
318.60 0.3712633
318.70 0.3714597
318.80 0.3716561
318.90 0.3718525
319.00 0.3720489
319.10 0.3722454
319.20 0.3724418
319.30 0.3726383
319.40 0.3728348
319.50 0.3730313
319.60 0.3732278
319.70 0.3734243
319.80 0.3736209
319.90 0.3738174
320.00 0.374014
320.10 0.3735449
320.20 0.3726677
320.30 0.3717905
320.40 0.3709133
320.50 0.3700359
320.60 0.3691585
320.70 0.368281
320.80 0.3674035
320.90 0.3665258
321.00 0.3656481
321.10 0.3647704
321.20 0.3638926
321.30 0.3630147
321.40 0.3621367
321.50 0.3612587
321.60 0.3603806
321.70 0.3600292
321.80 0.3600593
321.90 0.3600895
322.00 0.3601196
322.10 0.3601497
322.20 0.3601798
322.30 0.3602099
322.40 0.36024
322.50 0.3602701
322.60 0.3603002
322.70 0.3603304
322.80 0.3603605
322.90 0.3603906
323.00 0.3604207
323.10 0.3604509
323.20 0.360481
323.30 0.3622845
323.40 0.3662558
323.50 0.3702273
323.60 0.3741992
323.70 0.3781713
323.80 0.3821438
323.90 0.3861165
324.00 0.3900896
324.10 0.3940629
324.20 0.3980366
324.30 0.4020105
324.40 0.4059848
324.50 0.4099593
324.60 0.4139342
324.70 0.4179094
324.80 0.4218848
324.90 0.4258266
325.00 0.4296611
325.10 0.4334959
325.20 0.4373309
325.30 0.4411663
325.40 0.4450019
325.50 0.4488379
325.60 0.4526741
325.70 0.4565106
325.80 0.4603474
325.90 0.4641845
326.00 0.4680219
326.10 0.4718596
326.20 0.4756976
326.30 0.4795358
326.40 0.4833744
326.50 0.4872132
326.60 0.4880231
326.70 0.4886735
326.80 0.489324
326.90 0.4899746
327.00 0.4906252
327.10 0.4912758
327.20 0.4919265
327.30 0.4925773
327.40 0.4932281
327.50 0.4938789
327.60 0.4945298
327.70 0.4951808
327.80 0.4958318
327.90 0.4964828
328.00 0.4971339
328.10 0.497785
328.20 0.4979377
328.30 0.4977145
328.40 0.4974911
328.50 0.4972678
328.60 0.4970445
328.70 0.4968211
328.80 0.4965977
328.90 0.4963743
329.00 0.4961509
329.10 0.4959275
329.20 0.495704
329.30 0.4954805
329.40 0.495257
329.50 0.4950335
329.60 0.49481
329.70 0.4945864
329.80 0.4943177
329.90 0.4937179
330.00 0.493118
330.10 0.4925181
330.20 0.4919181
330.30 0.4913181
330.40 0.490718
330.50 0.4901179
330.60 0.4895177
330.70 0.4889175
330.80 0.4883173
330.90 0.487717
331.00 0.4871166
331.10 0.4865162
331.20 0.4859158
331.30 0.4853153
331.40 0.4847148
331.50 0.4842273
331.60 0.4838216
331.70 0.4834159
331.80 0.4830102
331.90 0.4826045
332.00 0.4821987
332.10 0.4817929
332.20 0.481387
332.30 0.4809811
332.40 0.4805752
332.50 0.4801693
332.60 0.4797633
332.70 0.4793573
332.80 0.4789513
332.90 0.4785452
333.00 0.4781391
333.10 0.477733
333.20 0.4759139
333.30 0.4740359
333.40 0.4721577
333.50 0.4702794
333.60 0.468401
333.70 0.4665223
333.80 0.4646436
333.90 0.4627647
334.00 0.4608857
334.10 0.4590065
334.20 0.4571272
334.30 0.4552477
334.40 0.4533681
334.50 0.4514883
334.60 0.4496084
334.70 0.4477284
334.80 0.4456427
334.90 0.4429717
335.00 0.4403005
335.10 0.4376292
335.20 0.4349576
335.30 0.4322858
335.40 0.4296138
335.50 0.4269417
335.60 0.4242693
335.70 0.4215967
335.80 0.4189239
335.90 0.4162509
336.00 0.4135777
336.10 0.4109043
336.20 0.4082307
336.30 0.4055569
336.40 0.4028829
336.50 0.4015729
336.60 0.4018013
336.70 0.4020297
336.80 0.4022581
336.90 0.4024865
337.00 0.4027149
337.10 0.4029434
337.20 0.4031719
337.30 0.4034003
337.40 0.4036288
337.50 0.4038574
337.60 0.4040859
337.70 0.4043144
337.80 0.404543
337.90 0.4047716
338.00 0.4050002
338.10 0.4052288
338.20 0.4060556
338.30 0.4072813
338.40 0.408507
338.50 0.4097329
338.60 0.4109588
338.70 0.4121848
338.80 0.413411
338.90 0.4146372
339.00 0.4158635
339.10 0.4170899
339.20 0.4183164
339.30 0.4195429
339.40 0.4207696
339.50 0.4219964
339.60 0.4232232
339.70 0.4244502
339.80 0.4256772
339.90 0.4261192
340.00 0.4261197
340.10 0.4261201
340.20 0.4261205
340.30 0.4261209
340.40 0.4261214
340.50 0.4261218
340.60 0.4261222
340.70 0.4261226
340.80 0.426123
340.90 0.4261235
341.00 0.4261239
341.10 0.4261243
341.20 0.4261247
341.30 0.4261251
341.40 0.4261255
341.50 0.4261259
341.60 0.4264772
341.70 0.4270624
341.80 0.4276476
341.90 0.4282329
342.00 0.4288182
342.10 0.4294035
342.20 0.4299889
342.30 0.4305744
342.40 0.4311598
342.50 0.4317454
342.60 0.4323309
342.70 0.4329165
342.80 0.4335022
342.90 0.4340879
343.00 0.4346736
343.10 0.4352594
343.20 0.4358452
343.30 0.4372485
343.40 0.4395373
343.50 0.4418263
343.60 0.4441155
343.70 0.4464049
343.80 0.4486944
343.90 0.4509841
344.00 0.453274
344.10 0.4555641
344.20 0.4578543
344.30 0.4601447
344.40 0.4624352
344.50 0.464726
344.60 0.4670169
344.70 0.4693079
344.80 0.4715992
344.90 0.4738906
345.00 0.4761534
345.10 0.4783342
345.20 0.4805152
345.30 0.4826963
345.40 0.4848776
345.50 0.4870591
345.60 0.4892408
345.70 0.4914226
345.80 0.4936045
345.90 0.4957866
346.00 0.4979689
346.10 0.5001514
346.20 0.502334
346.30 0.5045168
346.40 0.5066997
346.50 0.5088828
346.60 0.5110661
346.70 0.5132495
346.80 0.5144338
346.90 0.5155766
347.00 0.5167194
347.10 0.5178623
347.20 0.5190052
347.30 0.5201483
347.40 0.5212915
347.50 0.5224347
347.60 0.523578
347.70 0.5247214
347.80 0.5258649
347.90 0.5270085
348.00 0.5281521
348.10 0.5292959
348.20 0.5304397
348.30 0.5315836
348.40 0.5327276
348.50 0.5335174
348.60 0.5340507
348.70 0.534584
348.80 0.5351173
348.90 0.5356507
349.00 0.5361841
349.10 0.5367175
349.20 0.537251
349.30 0.5377846
349.40 0.5383181
349.50 0.5388517
349.60 0.5393854
349.70 0.5399191
349.80 0.5404528
349.90 0.5409865
350.00 0.5415203
350.10 0.5420542
350.20 0.5425257
350.30 0.5424927
350.40 0.5424597
350.50 0.5424268
350.60 0.5423938
350.70 0.5423608
350.80 0.5423278
350.90 0.5422948
351.00 0.5422618
351.10 0.5422288
351.20 0.5421957
351.30 0.5421627
351.40 0.5421297
351.50 0.5420967
351.60 0.5420636
351.70 0.5420306
351.80 0.5419976
351.90 0.5419645
352.00 0.5423366
352.10 0.5430402
352.20 0.5437439
352.30 0.5444476
352.40 0.5451513
352.50 0.5458551
352.60 0.546559
352.70 0.5472629
352.80 0.5479669
352.90 0.5486709
353.00 0.5493749
353.10 0.5500791
353.20 0.5507832
353.30 0.5514874
353.40 0.5521917
353.50 0.552896
353.60 0.5536004
353.70 0.5543048
353.80 0.5530676
353.90 0.5516146
354.00 0.5501614
354.10 0.5487082
354.20 0.5472548
354.30 0.5458013
354.40 0.5443477
354.50 0.542894
354.60 0.5414402
354.70 0.5399863
354.80 0.5385322
354.90 0.5370781
355.00 0.5356238
355.10 0.5341695
355.20 0.532715
355.30 0.5312604
355.40 0.5298057
355.50 0.5279476
355.60 0.5239718
355.70 0.5199957
355.80 0.5160194
355.90 0.5120427
356.00 0.5080657
356.10 0.5040885
356.20 0.5001109
356.30 0.496133
356.40 0.4921549
356.50 0.4881764
356.60 0.4841976
356.70 0.4802186
356.80 0.4762392
356.90 0.4722595
357.00 0.4682796
357.10 0.4642993
357.20 0.4603188
357.30 0.4577587
357.40 0.4580832
357.50 0.4584077
357.60 0.4587323
357.70 0.4590568
357.80 0.4593814
357.90 0.4597061
358.00 0.4600307
358.10 0.4603554
358.20 0.4606801
358.30 0.4610048
358.40 0.4613295
358.50 0.4616543
358.60 0.461979
358.70 0.4623038
358.80 0.4626287
358.90 0.4629535
359.00 0.4632784
359.10 0.4644954
359.20 0.4669446
359.30 0.469394
359.40 0.4718436
359.50 0.4742933
359.60 0.4767433
359.70 0.4791934
359.80 0.4816437
359.90 0.4840941
360.00 0.4865448
360.10 0.4889956
360.20 0.4914466
360.30 0.4938978
360.40 0.4963492
360.50 0.4988008
360.60 0.5012526
360.70 0.5037045
360.80 0.5061566
360.90 0.5080439
361.00 0.5091182
361.10 0.5101925
361.20 0.511267
361.30 0.5123415
361.40 0.5134162
361.50 0.5144908
361.60 0.5155656
361.70 0.5166405
361.80 0.5177154
361.90 0.5187904
362.00 0.5198655
362.10 0.5209407
362.20 0.5220159
362.30 0.5230912
362.40 0.5241667
362.50 0.5252421
362.60 0.5263177
362.70 0.527692
362.80 0.5297012
362.90 0.5317105
363.00 0.53372
363.10 0.5357296
363.20 0.5377394
363.30 0.5397493
363.40 0.5417594
363.50 0.5437696
363.60 0.5457799
363.70 0.5477905
363.80 0.5498011
363.90 0.5518119
364.00 0.5538229
364.10 0.555834
364.20 0.5578453
364.30 0.5598567
364.40 0.5618682
364.50 0.5639478
364.60 0.5664814
364.70 0.5690152
364.80 0.5715493
364.90 0.5740835
365.00 0.5766179
365.10 0.5791525
365.20 0.5816872
365.30 0.5842222
365.40 0.5867574
365.50 0.5892927
365.60 0.5918282
365.70 0.594364
365.80 0.5968999
365.90 0.5994359
366.00 0.6019722
366.10 0.6045087
366.20 0.6070454
366.30 0.6095822
366.40 0.6099633
366.50 0.6099934
366.60 0.6100235
366.70 0.6100537
366.80 0.6100838
366.90 0.6101139
367.00 0.6101441
367.10 0.6101742
367.20 0.6102043
367.30 0.6102344
367.40 0.6102646
367.50 0.6102947
367.60 0.6103248
367.70 0.610355
367.80 0.6103851
367.90 0.6104153
368.00 0.6104454
368.10 0.6104755
368.20 0.6100655
368.30 0.6091974
368.40 0.6083292
368.50 0.607461
368.60 0.6065927
368.70 0.6057243
368.80 0.6048558
368.90 0.6039873
369.00 0.6031187
369.10 0.6022501
369.20 0.6013814
369.30 0.6005126
369.40 0.5996437
369.50 0.5987748
369.60 0.5979058
369.70 0.5970368
369.80 0.5961677
369.90 0.5952985
370.00 0.5943873
370.10 0.5921201
370.20 0.5898527
370.30 0.5875851
370.40 0.5853173
370.50 0.5830494
370.60 0.5807813
370.70 0.5785131
370.80 0.5762446
370.90 0.573976
371.00 0.5717073
371.10 0.5694383
371.20 0.5671692
371.30 0.5648999
371.40 0.5626304
371.50 0.5603608
371.60 0.558091
371.70 0.555821
371.80 0.5535509
371.90 0.5510912
372.00 0.5484178
372.10 0.5457441
372.20 0.5430703
372.30 0.5403962
372.40 0.5377219
372.50 0.5350475
372.60 0.5323728
372.70 0.529698
372.80 0.5270229
372.90 0.5243477
373.00 0.5216722
373.10 0.5189966
373.20 0.5163207
373.30 0.5136446
373.40 0.5109684
373.50 0.5082919
373.60 0.5056152
373.70 0.5029384
373.80 0.5039526
373.90 0.5057231
374.00 0.5074936
374.10 0.5092643
374.20 0.5110351
374.30 0.5128061
374.40 0.5145771
374.50 0.5163483
374.60 0.5181197
374.70 0.5198911
374.80 0.5216627
374.90 0.5234345
375.00 0.5252063
375.10 0.5269783
375.20 0.5287504
375.30 0.5305227
375.40 0.5322951
375.50 0.5340676
375.60 0.5360557
375.70 0.5402228
375.80 0.5443902
375.90 0.5485579
376.00 0.5527259
376.10 0.5568942
376.20 0.5610628
376.30 0.5652318
376.40 0.569401
376.50 0.5735706
376.60 0.5777404
376.70 0.5819106
376.80 0.5860811
376.90 0.5902519
377.00 0.594423
377.10 0.5985944
377.20 0.6027661
377.30 0.6069381
377.40 0.6111104
377.50 0.6141599
377.60 0.6138397
377.70 0.6135195
377.80 0.6131993
377.90 0.6128791
378.00 0.6125589
378.10 0.6122386
378.20 0.6119183
378.30 0.611598
378.40 0.6112776
378.50 0.6109572
378.60 0.6106368
378.70 0.6103164
378.80 0.609996
378.90 0.6096755
379.00 0.609355
379.10 0.6090345
379.20 0.6087139
379.30 0.6083933
379.40 0.6067911
379.50 0.6024651
379.60 0.5981388
379.70 0.5938121
379.80 0.5894852
379.90 0.5851579
380.00 0.5808303
380.10 0.5765024
380.20 0.5721741
380.30 0.5678456
380.40 0.5635167
380.50 0.5591875
380.60 0.5548579
380.70 0.5505281
380.80 0.5461979
380.90 0.5418674
381.00 0.5375365
381.10 0.5332054
381.20 0.5288739
381.30 0.5246382
381.40 0.5206264
381.50 0.5166143
381.60 0.5126019
381.70 0.5085892
381.80 0.5045762
381.90 0.5005629
382.00 0.4965493
382.10 0.4925354
382.20 0.4885212
382.30 0.4845067
382.40 0.4804919
382.50 0.4764768
382.60 0.4724614
382.70 0.4684457
382.80 0.4644297
382.90 0.4604134
383.00 0.4563968
383.10 0.4523799
383.20 0.44924
383.30 0.4500964
383.40 0.4509529
383.50 0.4518095
383.60 0.4526661
383.70 0.4535228
383.80 0.4543795
383.90 0.4552363
384.00 0.4560932
384.10 0.4569501
384.20 0.4578071
384.30 0.4586641
384.40 0.4595212
384.50 0.4603784
384.60 0.4612357
384.70 0.462093
384.80 0.4629503
384.90 0.4638077
385.00 0.4646652
385.10 0.4655228
385.20 0.4673429
385.30 0.4691929
385.40 0.471043
385.50 0.4728933
385.60 0.4747437
385.70 0.4765943
385.80 0.478445
385.90 0.4802958
386.00 0.4821468
386.10 0.4839978
386.20 0.4858491
386.30 0.4877004
386.40 0.4895519
386.50 0.4914036
386.60 0.4932554
386.70 0.4951073
386.80 0.4969593
386.90 0.4988115
387.00 0.5006638
387.10 0.5032254
387.20 0.5061691
387.30 0.509113
387.40 0.5120572
387.50 0.5150015
387.60 0.5179461
387.70 0.5208908
387.80 0.5238358
387.90 0.526781
388.00 0.5297265
388.10 0.5326721
388.20 0.535618
388.30 0.538564
388.40 0.5415103
388.50 0.5444568
388.60 0.5474036
388.70 0.5503505
388.80 0.5532977
388.90 0.556245
389.00 0.5588926
389.10 0.5606402
389.20 0.5623879
389.30 0.5641357
389.40 0.5658836
389.50 0.5676317
389.60 0.5693799
389.70 0.5711282
389.80 0.5728767
389.90 0.5746253
390.00 0.576374
390.10 0.5781229
390.20 0.5798718
390.30 0.5816209
390.40 0.5833702
390.50 0.5851195
390.60 0.586869
390.70 0.5886186
390.80 0.5903684
390.90 0.5921182
391.00 0.5897819
391.10 0.5860096
391.20 0.582237
391.30 0.5784641
391.40 0.574691
391.50 0.5709175
391.60 0.5671438
391.70 0.5633698
391.80 0.5595955
391.90 0.555821
392.00 0.5520461
392.10 0.548271
392.20 0.5444956
392.30 0.5407199
392.40 0.536944
392.50 0.5331677
392.60 0.5293912
392.70 0.5256144
392.80 0.5218373
392.90 0.5185422
393.00 0.5182092
393.10 0.5178761
393.20 0.5175431
393.30 0.51721
393.40 0.5168769
393.50 0.5165437
393.60 0.5162105
393.70 0.5158773
393.80 0.5155441
393.90 0.5152109
394.00 0.5148776
394.10 0.5145443
394.20 0.514211
394.30 0.5138776
394.40 0.5135442
394.50 0.5132108
394.60 0.5128774
394.70 0.5125439
394.80 0.5122105
394.90 0.5135084
395.00 0.516883
395.10 0.5202577
395.20 0.5236328
395.30 0.5270081
395.40 0.5303836
395.50 0.5337594
395.60 0.5371354
395.70 0.5405117
395.80 0.5438882
395.90 0.547265
396.00 0.550642
396.10 0.5540193
396.20 0.5573968
396.30 0.5607746
396.40 0.5641526
396.50 0.5675309
396.60 0.5709094
396.70 0.5742882
396.80 0.5776672
396.90 0.5838092
397.00 0.5915059
397.10 0.5992031
397.20 0.6069009
397.30 0.6145993
397.40 0.6222982
397.50 0.6299977
397.60 0.6376978
397.70 0.6453984
397.80 0.6530996
397.90 0.6608014
398.00 0.6685037
398.10 0.6762066
398.20 0.6839101
398.30 0.6916141
398.40 0.6993187
398.50 0.7070239
398.60 0.7147296
398.70 0.7224359
398.80 0.7301428
398.90 0.736157
399.00 0.7415768
399.10 0.746997
399.20 0.7524176
399.30 0.7578385
399.40 0.7632599
399.50 0.7686817
399.60 0.7741039
399.70 0.7795264
399.80 0.7849494
399.90 0.7903728
400.00 0.7957965
400.10 0.8012193
400.20 0.8066424
400.30 0.8120659
400.40 0.8174898
400.50 0.8229141
400.60 0.8283387
400.70 0.8337637
400.80 0.8391891
400.90 0.8410738
401.00 0.8417143
401.10 0.8423548
401.20 0.8429954
401.30 0.8436361
401.40 0.8442768
401.50 0.8449175
401.60 0.8455583
401.70 0.8461991
401.80 0.8468399
401.90 0.8474808
402.00 0.8481218
402.10 0.8487627
402.20 0.8494038
402.30 0.8500448
402.40 0.8506859
402.50 0.8513271
402.60 0.8519683
402.70 0.8526095
402.80 0.8532508
402.90 0.853012
403.00 0.8522782
403.10 0.8515442
403.20 0.8508103
403.30 0.8500762
403.40 0.8493421
403.50 0.848608
403.60 0.8478738
403.70 0.8471395
403.80 0.8464052
403.90 0.8456709
404.00 0.8449364
404.10 0.844202
404.20 0.8434675
404.30 0.8427329
404.40 0.8419982
404.50 0.8412636
404.60 0.8405288
404.70 0.839794
404.80 0.8390592
404.90 0.8386428
405.00 0.8386319
405.10 0.8386209
405.20 0.83861
405.30 0.838599
405.40 0.838588
405.50 0.838577
405.60 0.8385661
405.70 0.8385551
405.80 0.8385441
405.90 0.8385331
406.00 0.8385221
406.10 0.8385111
406.20 0.8385002
406.30 0.8384892
406.40 0.8384782
406.50 0.8384672
406.60 0.8384562
406.70 0.8384451
406.80 0.8384341
406.90 0.8386145
407.00 0.8399704
407.10 0.8413264
407.20 0.8426824
407.30 0.8440386
407.40 0.8453949
407.50 0.8467512
407.60 0.8481077
407.70 0.8494642
407.80 0.8508208
407.90 0.8521775
408.00 0.8535344
408.10 0.8548913
408.20 0.8562483
408.30 0.8576054
408.40 0.8589626
408.50 0.8603198
408.60 0.8616772
408.70 0.8630347
408.80 0.8643923
408.90 0.8657499
409.00 0.8670839
409.10 0.8684092
409.20 0.8697346
409.30 0.8710601
409.40 0.8723857
409.50 0.8737114
409.60 0.8750372
409.70 0.876363
409.80 0.877689
409.90 0.879015
410.00 0.8803411
410.10 0.8816673
410.20 0.8829937
410.30 0.8843201
410.40 0.8856466
410.50 0.8869731
410.60 0.8882998
410.70 0.8896266
410.80 0.8909534
410.90 0.8922804
411.00 0.8934408
411.10 0.8940435
411.20 0.8946462
411.30 0.8952489
411.40 0.8958517
411.50 0.8964545
411.60 0.8970574
411.70 0.8976603
411.80 0.8982632
411.90 0.8988662
412.00 0.8994692
412.10 0.9000723
412.20 0.9006754
412.30 0.9012785
412.40 0.9018817
412.50 0.9024849
412.60 0.9030882
412.70 0.9036915
412.80 0.9042948
412.90 0.9048982
413.00 0.9055016
413.10 0.9058244
413.20 0.9059752
413.30 0.906126
413.40 0.9062768
413.50 0.9064276
413.60 0.9065785
413.70 0.9067293
413.80 0.9068801
413.90 0.907031
414.00 0.9071819
414.10 0.9073327
414.20 0.9074836
414.30 0.9076345
414.40 0.9077854
414.50 0.9079363
414.60 0.9080872
414.70 0.9082381
414.80 0.908389
414.90 0.90854
415.00 0.9086909
415.10 0.9088419
415.20 0.9082491
415.30 0.9075826
415.40 0.9069162
415.50 0.9062496
415.60 0.9055831
415.70 0.9049165
415.80 0.9042498
415.90 0.9035831
416.00 0.9029163
416.10 0.9022495
416.20 0.9015826
416.30 0.9009157
416.40 0.9002488
416.50 0.8995817
416.60 0.8989147
416.70 0.8982476
416.80 0.8975804
416.90 0.8969132
417.00 0.896246
417.10 0.8955787
417.20 0.8948508
417.30 0.8935111
417.40 0.8921713
417.50 0.8908314
417.60 0.8894914
417.70 0.8881513
417.80 0.8868111
417.90 0.8854708
418.00 0.8841304
418.10 0.88279
418.20 0.8814494
418.30 0.8801087
418.40 0.878768
418.50 0.8774271
418.60 0.8760861
418.70 0.8747451
418.80 0.8734039
418.90 0.8720627
419.00 0.8707214
419.10 0.8693799
419.20 0.8680384
419.30 0.8668212
419.40 0.8662112
419.50 0.8656011
419.60 0.864991
419.70 0.8643809
419.80 0.8637707
419.90 0.8631605
420.00 0.8625502
420.10 0.8619399
420.20 0.8613296
420.30 0.8607192
420.40 0.8601087
420.50 0.8594982
420.60 0.8588877
420.70 0.8582771
420.80 0.8576665
420.90 0.8570558
421.00 0.8564451
421.10 0.8558344
421.20 0.8552236
421.30 0.8546127
421.40 0.8539633
421.50 0.8530955
421.60 0.8522277
421.70 0.8513598
421.80 0.8504919
421.90 0.8496239
422.00 0.8487558
422.10 0.8478876
422.20 0.8470194
422.30 0.8461512
422.40 0.8452828
422.50 0.8444145
422.60 0.843546
422.70 0.8426775
422.80 0.8418089
422.90 0.8409403
423.00 0.8400716
423.10 0.8392028
423.20 0.838334
423.30 0.8374651
423.40 0.8365961
423.50 0.8357213
423.60 0.834559
423.70 0.8333966
423.80 0.8322342
423.90 0.8310716
424.00 0.829909
424.10 0.8287463
424.20 0.8275835
424.30 0.8264207
424.40 0.8252577
424.50 0.8240947
424.60 0.8229316
424.70 0.8217684
424.80 0.8206051
424.90 0.8194418
425.00 0.8182783
425.10 0.8171148
425.20 0.8159512
425.30 0.8147875
425.40 0.8136237
425.50 0.8124599
425.60 0.8112959
425.70 0.8089189
425.80 0.8061995
425.90 0.8034799
426.00 0.8007601
426.10 0.7980402
426.20 0.79532
426.30 0.7925997
426.40 0.7898791
426.50 0.7871584
426.60 0.7844375
426.70 0.7817164
426.80 0.7789951
426.90 0.7762736
427.00 0.7735519
427.10 0.77083
427.20 0.768108
427.30 0.7653857
427.40 0.7626633
427.50 0.7599406
427.60 0.7572178
427.70 0.7544948
427.80 0.7517919
427.90 0.7491147
428.00 0.7464373
428.10 0.7437597
428.20 0.741082
428.30 0.738404
428.40 0.7357259
428.50 0.7330475
428.60 0.730369
428.70 0.7276903
428.80 0.7250114
428.90 0.7223324
429.00 0.7196531
429.10 0.7169736
429.20 0.714294
429.30 0.7116142
429.40 0.7089341
429.50 0.7062539
429.60 0.7035735
429.70 0.7008929
429.80 0.6982122
429.90 0.6955312
430.00 0.6981107
430.10 0.7007435
430.20 0.7033765
430.30 0.7060096
430.40 0.708643
430.50 0.7112765
430.60 0.7139102
430.70 0.7165441
430.80 0.7191782
430.90 0.7218124
431.00 0.7244469
431.10 0.7270815
431.20 0.7297163
431.30 0.7323513
431.40 0.7349864
431.50 0.7376218
431.60 0.7402573
431.70 0.742893
431.80 0.7455289
431.90 0.748165
432.00 0.7508012
432.10 0.7539958
432.20 0.7579305
432.30 0.7618655
432.40 0.7658007
432.50 0.7697362
432.60 0.773672
432.70 0.7776081
432.80 0.7815444
432.90 0.785481
433.00 0.7894179
433.10 0.793355
433.20 0.7972924
433.30 0.8012301
433.40 0.8051681
433.50 0.8091063
433.60 0.8130448
433.70 0.8169836
433.80 0.8209226
433.90 0.8248619
434.00 0.8288015
434.10 0.8327414
434.20 0.8366815
434.30 0.8388685
434.40 0.840502
434.50 0.8421356
434.60 0.8437693
434.70 0.8454031
434.80 0.847037
434.90 0.848671
435.00 0.8503051
435.10 0.8519394
435.20 0.8535737
435.30 0.8552082
435.40 0.8568428
435.50 0.8584775
435.60 0.8601123
435.70 0.8617472
435.80 0.8633822
435.90 0.8650174
436.00 0.8666526
436.10 0.868288
436.20 0.8699234
436.30 0.871559
436.40 0.8731947
436.50 0.8732473
436.60 0.8732839
436.70 0.8733206
436.80 0.8733572
436.90 0.8733938
437.00 0.8734304
437.10 0.873467
437.20 0.8735036
437.30 0.8735403
437.40 0.8735769
437.50 0.8736135
437.60 0.8736501
437.70 0.8736867
437.80 0.8737234
437.90 0.87376
438.00 0.8737966
438.10 0.8738332
438.20 0.8738699
438.30 0.8739065
438.40 0.8739431
438.50 0.8739797
438.60 0.8741427
438.70 0.875443
438.80 0.8767435
438.90 0.878044
439.00 0.8793445
439.10 0.8806452
439.20 0.881946
439.30 0.8832468
439.40 0.8845478
439.50 0.8858488
439.60 0.8871499
439.70 0.8884511
439.80 0.8897524
439.90 0.8910538
440.00 0.8923552
440.10 0.8936568
440.20 0.8949584
440.30 0.8962602
440.40 0.897562
440.50 0.8988639
440.60 0.9001659
440.70 0.901468
440.80 0.9028204
440.90 0.9045796
441.00 0.906339
441.10 0.9080984
441.20 0.909858
441.30 0.9116177
441.40 0.9133775
441.50 0.9151375
441.60 0.9168975
441.70 0.9186577
441.80 0.920418
441.90 0.9221784
442.00 0.923939
442.10 0.9256996
442.20 0.9274604
442.30 0.9292213
442.40 0.9309823
442.50 0.9327434
442.60 0.9345047
442.70 0.9362661
442.80 0.9380276
442.90 0.9397892
443.00 0.9415426
443.10 0.9424726
443.20 0.9434026
443.30 0.9443326
443.40 0.9452628
443.50 0.946193
443.60 0.9471232
443.70 0.9480536
443.80 0.9489839
443.90 0.9499144
444.00 0.9508449
444.10 0.9517755
444.20 0.9527061
444.30 0.9536368
444.40 0.9545676
444.50 0.9554984
444.60 0.9564293
444.70 0.9573602
444.80 0.9582912
444.90 0.9592223
445.00 0.9601534
445.10 0.9610846
445.20 0.9620158
445.30 0.9634982
445.40 0.9651271
445.50 0.9667562
445.60 0.9683854
445.70 0.9700146
445.80 0.971644
445.90 0.9732735
446.00 0.9749031
446.10 0.9765329
446.20 0.9781627
446.30 0.9797926
446.40 0.9814227
446.50 0.9830528
446.60 0.9846831
446.70 0.9863135
446.80 0.987944
446.90 0.9895746
447.00 0.9912053
447.10 0.9928361
447.20 0.994467
447.30 0.9960981
447.40 0.9977292
447.50 0.9994669
447.60 1.001325
447.70 1.003182
447.80 1.00504
447.90 1.006898
448.00 1.008757
448.10 1.010615
448.20 1.012473
448.30 1.014332
448.40 1.016191
448.50 1.018049
448.60 1.019908
448.70 1.021767
448.80 1.023627
448.90 1.025486
449.00 1.027345
449.10 1.029205
449.20 1.031065
449.30 1.032924
449.40 1.034784
449.50 1.036644
449.60 1.038505
449.70 1.040313
449.80 1.040441
449.90 1.04057
450.00 1.040698
450.10 1.040833
450.20 1.040969
450.30 1.041104
450.40 1.04124
450.50 1.041375
450.60 1.041511
450.70 1.041646
450.80 1.041782
450.90 1.041917
451.00 1.042053
451.10 1.042188
451.20 1.042324
451.30 1.042459
451.40 1.042595
451.50 1.042731
451.60 1.042866
451.70 1.043002
451.80 1.043137
451.90 1.043273
452.00 1.043194
452.10 1.042881
452.20 1.042569
452.30 1.042256
452.40 1.041944
452.50 1.041631
452.60 1.041319
452.70 1.041006
452.80 1.040694
452.90 1.040381
453.00 1.040069
453.10 1.039756
453.20 1.039443
453.30 1.039131
453.40 1.038818
453.50 1.038505
453.60 1.038192
453.70 1.037879
453.80 1.037567
453.90 1.037254
454.00 1.036941
454.10 1.036628
454.20 1.036315
454.30 1.036834
454.40 1.037536
454.50 1.038238
454.60 1.038941
454.70 1.039643
454.80 1.040345
454.90 1.041048
455.00 1.04175
455.10 1.042453
455.20 1.043155
455.30 1.043858
455.40 1.044561
455.50 1.045263
455.60 1.045966
455.70 1.046669
455.80 1.047372
455.90 1.048075
456.00 1.048778
456.10 1.049481
456.20 1.050184
456.30 1.050887
456.40 1.05159
456.50 1.052267
456.60 1.052311
456.70 1.052354
456.80 1.052398
456.90 1.052441
457.00 1.052485
457.10 1.052528
457.20 1.052572
457.30 1.052615
457.40 1.052659
457.50 1.052702
457.60 1.052746
457.70 1.052789
457.80 1.052833
457.90 1.052876
458.00 1.05292
458.10 1.052963
458.20 1.053007
458.30 1.05305
458.40 1.053094
458.50 1.053137
458.60 1.053181
458.70 1.053224
458.80 1.05325
458.90 1.053172
459.00 1.053095
459.10 1.053017
459.20 1.052939
459.30 1.052862
459.40 1.052784
459.50 1.052706
459.60 1.052629
459.70 1.052551
459.80 1.052473
459.90 1.052396
460.00 1.052318
460.10 1.05224
460.20 1.052163
460.30 1.052085
460.40 1.052007
460.50 1.051929
460.60 1.051852
460.70 1.051774
460.80 1.051696
460.90 1.051618
461.00 1.05154
461.10 1.05147
461.20 1.051441
461.30 1.051412
461.40 1.051383
461.50 1.051354
461.60 1.051325
461.70 1.051295
461.80 1.051266
461.90 1.051237
462.00 1.051208
462.10 1.051179
462.20 1.05115
462.30 1.051121
462.40 1.051092
462.50 1.051063
462.60 1.051034
462.70 1.051005
462.80 1.050976
462.90 1.050947
463.00 1.050918
463.10 1.050889
463.20 1.050859
463.30 1.05083
463.40 1.050804
463.50 1.050926
463.60 1.051047
463.70 1.051168
463.80 1.05129
463.90 1.051411
464.00 1.051533
464.10 1.051654
464.20 1.051776
464.30 1.051897
464.40 1.052018
464.50 1.05214
464.60 1.052261
464.70 1.052383
464.80 1.052504
464.90 1.052626
465.00 1.052747
465.10 1.052869
465.20 1.05299
465.30 1.053112
465.40 1.053233
465.50 1.053355
465.60 1.053476
465.70 1.053598
465.80 1.053691
465.90 1.053776
466.00 1.053862
466.10 1.053947
466.20 1.054032
466.30 1.054118
466.40 1.054203
466.50 1.054288
466.60 1.054373
466.70 1.054459
466.80 1.054544
466.90 1.054629
467.00 1.054715
467.10 1.0548
467.20 1.054885
467.30 1.054971
467.40 1.055056
467.50 1.055141
467.60 1.055227
467.70 1.055312
467.80 1.055397
467.90 1.055483
468.00 1.055568
468.10 1.055525
468.20 1.055312
468.30 1.0551
468.40 1.054887
468.50 1.054674
468.60 1.054461
468.70 1.054248
468.80 1.054035
468.90 1.053822
469.00 1.053609
469.10 1.053396
469.20 1.053183
469.30 1.05297
469.40 1.052757
469.50 1.052544
469.60 1.052331
469.70 1.052118
469.80 1.051905
469.90 1.051692
470.00 1.051479
470.10 1.051265
470.20 1.051052
470.30 1.050839
470.40 1.050626
470.50 1.051023
470.60 1.051446
470.70 1.051869
470.80 1.052292
470.90 1.052715
471.00 1.053138
471.10 1.053562
471.20 1.053985
471.30 1.054408
471.40 1.054831
471.50 1.055254
471.60 1.055678
471.70 1.056101
471.80 1.056524
471.90 1.056948
472.00 1.057371
472.10 1.057795
472.20 1.058218
472.30 1.058641
472.40 1.059065
472.50 1.059489
472.60 1.059912
472.70 1.060336
472.80 1.060866
472.90 1.061577
473.00 1.062289
473.10 1.063
473.20 1.063712
473.30 1.064423
473.40 1.065135
473.50 1.065846
473.60 1.066558
473.70 1.06727
473.80 1.067982
473.90 1.068694
474.00 1.069406
474.10 1.070118
474.20 1.07083
474.30 1.071542
474.40 1.072254
474.50 1.072966
474.60 1.073678
474.70 1.074391
474.80 1.075103
474.90 1.075815
475.00 1.076528
475.10 1.07724
475.20 1.077663
475.30 1.077937
475.40 1.078211
475.50 1.078485
475.60 1.078759
475.70 1.079033
475.80 1.079307
475.90 1.079581
476.00 1.079855
476.10 1.080129
476.20 1.080403
476.30 1.080677
476.40 1.080951
476.50 1.081225
476.60 1.081499
476.70 1.081773
476.80 1.082047
476.90 1.082321
477.00 1.082595
477.10 1.08287
477.20 1.083144
477.30 1.083418
477.40 1.083692
477.50 1.083967
477.60 1.08389
477.70 1.083747
477.80 1.083604
477.90 1.083461
478.00 1.083317
478.10 1.083174
478.20 1.083031
478.30 1.082888
478.40 1.082744
478.50 1.082601
478.60 1.082458
478.70 1.082315
478.80 1.082171
478.90 1.082028
479.00 1.081885
479.10 1.081741
479.20 1.081598
479.30 1.081454
479.40 1.081311
479.50 1.081168
479.60 1.081024
479.70 1.080881
479.80 1.080737
479.90 1.080594
480.00 1.080035
480.10 1.079425
480.20 1.078815
480.30 1.078205
480.40 1.077595
480.50 1.076985
480.60 1.076375
480.70 1.075764
480.80 1.075154
480.90 1.074544
481.00 1.073933
481.10 1.073323
481.20 1.072712
481.30 1.072102
481.40 1.071491
481.50 1.07088
481.60 1.07027
481.70 1.069659
481.80 1.069048
481.90 1.068437
482.00 1.067826
482.10 1.067215
482.20 1.066604
482.30 1.065993
482.40 1.064241
482.50 1.062255
482.60 1.060269
482.70 1.058282
482.80 1.056296
482.90 1.054309
483.00 1.052323
483.10 1.050336
483.20 1.048349
483.30 1.046361
483.40 1.044374
483.50 1.042386
483.60 1.040399
483.70 1.038411
483.80 1.036423
483.90 1.034434
484.00 1.032446
484.10 1.030457
484.20 1.028469
484.30 1.02648
484.40 1.024491
484.50 1.022501
484.60 1.020512
484.70 1.018522
484.80 1.017084
484.90 1.015955
485.00 1.014826
485.10 1.013697
485.20 1.012567
485.30 1.011438
485.40 1.010309
485.50 1.009179
485.60 1.00805
485.70 1.00692
485.80 1.00579
485.90 1.00466
486.00 1.00353
486.10 1.0024
486.20 1.00127
486.30 1.00014
486.40 0.9990096
486.50 0.9978792
486.60 0.9967486
486.70 0.995618
486.80 0.9944873
486.90 0.9933564
487.00 0.9922255
487.10 0.9910945
487.20 0.9906657
487.30 0.9916004
487.40 0.9925352
487.50 0.99347
487.60 0.9944049
487.70 0.9953398
487.80 0.9962749
487.90 0.99721
488.00 0.9981452
488.10 0.9990804
488.20 1.000016
488.30 1.000951
488.40 1.001887
488.50 1.002822
488.60 1.003758
488.70 1.004693
488.80 1.005629
488.90 1.006565
489.00 1.007501
489.10 1.008437
489.20 1.009373
489.30 1.010309
489.40 1.011245
489.50 1.012182
489.60 1.013118
489.70 1.013747
489.80 1.014346
489.90 1.014945
490.00 1.015544
490.10 1.016143
490.20 1.016742
490.30 1.017341
490.40 1.01794
490.50 1.018539
490.60 1.019138
490.70 1.019737
490.80 1.020336
490.90 1.020936
491.00 1.021535
491.10 1.022134
491.20 1.022734
491.30 1.023333
491.40 1.023933
491.50 1.024532
491.60 1.025132
491.70 1.025732
491.80 1.026331
491.90 1.026931
492.00 1.027531
492.10 1.028107
492.20 1.028641
492.30 1.029175
492.40 1.029709
492.50 1.030243
492.60 1.030777
492.70 1.031311
492.80 1.031846
492.90 1.03238
493.00 1.032914
493.10 1.033449
493.20 1.033983
493.30 1.034517
493.40 1.035052
493.50 1.035586
493.60 1.036121
493.70 1.036656
493.80 1.03719
493.90 1.037725
494.00 1.03826
494.10 1.038794
494.20 1.039329
494.30 1.039864
494.40 1.040399
494.50 1.040934
494.60 1.040793
494.70 1.040333
494.80 1.039874
494.90 1.039415
495.00 1.038955
495.10 1.038496
495.20 1.038037
495.30 1.037577
495.40 1.037117
495.50 1.036658
495.60 1.036198
495.70 1.035739
495.80 1.035279
495.90 1.034819
496.00 1.034359
496.10 1.033899
496.20 1.03344
496.30 1.03298
496.40 1.03252
496.50 1.03206
496.60 1.0316
496.70 1.03114
496.80 1.030679
496.90 1.030219
497.00 1.029759
497.10 1.028701
497.20 1.027562
497.30 1.026422
497.40 1.025283
497.50 1.024143
497.60 1.023004
497.70 1.021864
497.80 1.020724
497.90 1.019584
498.00 1.018444
498.10 1.017304
498.20 1.016163
498.30 1.015023
498.40 1.013882
498.50 1.012742
498.60 1.011601
498.70 1.01046
498.80 1.009319
498.90 1.008179
499.00 1.007037
499.10 1.005896
499.20 1.004755
499.30 1.003614
499.40 1.002472
499.50 1.001331
499.60 1.001036
499.70 1.000777
499.80 1.000518
499.90 1.000259
500.00 1
500.10 0.9997307
500.20 0.9994614
500.30 0.999192
500.40 0.9989227
500.50 0.9986533
500.60 0.9983839
500.70 0.9981145
500.80 0.9978451
500.90 0.9975756
501.00 0.9973062
501.10 0.9970367
501.20 0.9967672
501.30 0.9964977
501.40 0.9962281
501.50 0.9959586
501.60 0.995689
501.70 0.9954194
501.80 0.9951498
501.90 0.9948802
502.00 0.9946105
502.10 0.9952442
502.20 0.9959673
502.30 0.9966904
502.40 0.9974136
502.50 0.9981368
502.60 0.9988601
502.70 0.9995833
502.80 1.000307
502.90 1.00103
503.00 1.001753
503.10 1.002477
503.20 1.0032
503.30 1.003924
503.40 1.004648
503.50 1.005371
503.60 1.006095
503.70 1.006819
503.80 1.007542
503.90 1.008266
504.00 1.00899
504.10 1.009714
504.20 1.010438
504.30 1.011162
504.40 1.011886
504.50 1.01261
504.60 1.013182
504.70 1.013701
504.80 1.014219
504.90 1.014738
505.00 1.015257
505.10 1.015776
505.20 1.016294
505.30 1.016813
505.40 1.017332
505.50 1.017851
505.60 1.01837
505.70 1.018889
505.80 1.019408
505.90 1.019927
506.00 1.020446
506.10 1.020965
506.20 1.021484
506.30 1.022004
506.40 1.022523
506.50 1.023042
506.60 1.023561
506.70 1.024081
506.80 1.0246
506.90 1.025119
507.00 1.025639
507.10 1.025889
507.20 1.025797
507.30 1.025706
507.40 1.025614
507.50 1.025522
507.60 1.025431
507.70 1.025339
507.80 1.025247
507.90 1.025156
508.00 1.025064
508.10 1.024972
508.20 1.024881
508.30 1.024789
508.40 1.024697
508.50 1.024605
508.60 1.024514
508.70 1.024422
508.80 1.02433
508.90 1.024238
509.00 1.024146
509.10 1.024055
509.20 1.023963
509.30 1.023871
509.40 1.023779
509.50 1.023687
509.60 1.02359
509.70 1.022948
509.80 1.022306
509.90 1.021664
510.00 1.021022
510.10 1.02038
510.20 1.019738
510.30 1.019096
510.40 1.018454
510.50 1.017812
510.60 1.01717
510.70 1.016528
510.80 1.015885
510.90 1.015243
511.00 1.014601
511.10 1.013958
511.20 1.013316
511.30 1.012673
511.40 1.012031
511.50 1.011388
511.60 1.010746
511.70 1.010103
511.80 1.00946
511.90 1.008817
512.00 1.008175
512.10 1.007532
512.20 1.006407
512.30 1.004715
512.40 1.003023
512.50 1.001331
512.60 0.9996395
512.70 0.9979474
512.80 0.9962553
512.90 0.994563
513.00 0.9928706
513.10 0.9911782
513.20 0.9894856
513.30 0.9877929
513.40 0.9861001
513.50 0.9844072
513.60 0.9827142
513.70 0.9810211
513.80 0.9793279
513.90 0.9776346
514.00 0.9759412
514.10 0.9742477
514.20 0.9725541
514.30 0.9708604
514.40 0.9691665
514.50 0.9674726
514.60 0.9657786
514.70 0.9640844
514.80 0.962419
514.90 0.9607615
515.00 0.959104
515.10 0.9574463
515.20 0.9557886
515.30 0.9541307
515.40 0.9524728
515.50 0.9508147
515.60 0.9491565
515.70 0.9474983
515.80 0.9458399
515.90 0.9441814
516.00 0.9425229
516.10 0.9408642
516.20 0.9392054
516.30 0.9375466
516.40 0.9358876
516.50 0.9342285
516.60 0.9325693
516.70 0.93091
516.80 0.9292506
516.90 0.9275911
517.00 0.9259316
517.10 0.9242719
517.20 0.9226121
517.30 0.9209522
517.40 0.9215556
517.50 0.9222534
517.60 0.9229512
517.70 0.9236491
517.80 0.924347
517.90 0.9250449
518.00 0.9257429
518.10 0.9264409
518.20 0.927139
518.30 0.9278371
518.40 0.9285352
518.50 0.9292334
518.60 0.9299317
518.70 0.9306299
518.80 0.9313282
518.90 0.9320266
519.00 0.932725
519.10 0.9334234
519.20 0.9341219
519.30 0.9348204
519.40 0.9355189
519.50 0.9362175
519.60 0.9369162
519.70 0.9376149
519.80 0.9383136
519.90 0.9390263
520.00 0.9404215
520.10 0.9418169
520.20 0.9432124
520.30 0.9446079
520.40 0.9460035
520.50 0.9473992
520.60 0.948795
520.70 0.9501909
520.80 0.9515868
520.90 0.9529828
521.00 0.954379
521.10 0.9557752
521.20 0.9571714
521.30 0.9585678
521.40 0.9599642
521.50 0.9613608
521.60 0.9627574
521.70 0.9641541
521.80 0.9655508
521.90 0.9669477
522.00 0.9683446
522.10 0.9697417
522.20 0.9711388
522.30 0.972536
522.40 0.9739332
522.50 0.9753306
522.60 0.9754078
522.70 0.9754155
522.80 0.9754233
522.90 0.975431
523.00 0.9754387
523.10 0.9754464
523.20 0.9754541
523.30 0.9754619
523.40 0.9754696
523.50 0.9754773
523.60 0.975485
523.70 0.9754927
523.80 0.9755004
523.90 0.9755081
524.00 0.9755158
524.10 0.9755236
524.20 0.9755313
524.30 0.975539
524.40 0.9755467
524.50 0.9755544
524.60 0.9755621
524.70 0.9755698
524.80 0.9755775
524.90 0.9755852
525.00 0.9755929
525.10 0.9756006
525.20 0.9757263
525.30 0.9758913
525.40 0.9760563
525.50 0.9762214
525.60 0.9763865
525.70 0.9765516
525.80 0.9767166
525.90 0.9768817
526.00 0.9770468
526.10 0.9772119
526.20 0.9773771
526.30 0.9775422
526.40 0.9777073
526.50 0.9778725
526.60 0.9780376
526.70 0.9782028
526.80 0.9783679
526.90 0.9785331
527.00 0.9786983
527.10 0.9788635
527.20 0.9790287
527.30 0.9791939
527.40 0.9793591
527.50 0.9795243
527.60 0.9796896
527.70 0.9798548
527.80 0.9802511
527.90 0.9809665
528.00 0.9816819
528.10 0.9823973
528.20 0.9831128
528.30 0.9838284
528.40 0.984544
528.50 0.9852596
528.60 0.9859752
528.70 0.9866909
528.80 0.9874067
528.90 0.9881225
529.00 0.9888383
529.10 0.9895542
529.20 0.9902701
529.30 0.990986
529.40 0.991702
529.50 0.992418
529.60 0.9931341
529.70 0.9938502
529.80 0.9945664
529.90 0.9952826
530.00 0.9959988
530.10 0.9967151
530.20 0.9974314
530.30 0.9981478
530.40 0.9988642
530.50 0.9985967
530.60 0.9982882
530.70 0.9979796
530.80 0.997671
530.90 0.9973624
531.00 0.9970538
531.10 0.9967452
531.20 0.9964365
531.30 0.9961278
531.40 0.9958191
531.50 0.9955104
531.60 0.9952017
531.70 0.9948929
531.80 0.9945841
531.90 0.9942753
532.00 0.9939665
532.10 0.9936577
532.20 0.9933488
532.30 0.9930399
532.40 0.992731
532.50 0.9924221
532.60 0.9921132
532.70 0.9918042
532.80 0.9914952
532.90 0.9911862
533.00 0.9908772
533.10 0.9907634
533.20 0.9909967
533.30 0.99123
533.40 0.9914634
533.50 0.9916967
533.60 0.9919301
533.70 0.9921635
533.80 0.9923969
533.90 0.9926303
534.00 0.9928637
534.10 0.9930971
534.20 0.9933306
534.30 0.993564
534.40 0.9937975
534.50 0.994031
534.60 0.9942644
534.70 0.9944979
534.80 0.9947315
534.90 0.994965
535.00 0.9951985
535.10 0.9954321
535.20 0.9956656
535.30 0.9958992
535.40 0.9961328
535.50 0.9963664
535.60 0.9966
535.70 0.9968336
535.80 0.9969222
535.90 0.9969256
536.00 0.996929
536.10 0.9969324
536.20 0.9969357
536.30 0.9969391
536.40 0.9969425
536.50 0.9969459
536.60 0.9969492
536.70 0.9969526
536.80 0.996956
536.90 0.9969593
537.00 0.9969627
537.10 0.9969661
537.20 0.9969694
537.30 0.9969728
537.40 0.9969762
537.50 0.9969795
537.60 0.9969829
537.70 0.9969862
537.80 0.9969896
537.90 0.9969929
538.00 0.9969963
538.10 0.9969996
538.20 0.997003
538.30 0.9970063
538.40 0.9970097
538.50 0.996767
538.60 0.9964466
538.70 0.9961262
538.80 0.9958058
538.90 0.9954854
539.00 0.9951649
539.10 0.9948444
539.20 0.9945239
539.30 0.9942034
539.40 0.9938829
539.50 0.9935623
539.60 0.9932417
539.70 0.9929211
539.80 0.9926005
539.90 0.9922798
540.00 0.9919591
540.10 0.9916385
540.20 0.9913177
540.30 0.990997
540.40 0.9906762
540.50 0.9903555
540.60 0.9900347
540.70 0.9897139
540.80 0.989393
540.90 0.9890721
541.00 0.9887513
541.10 0.9884304
541.20 0.988609
541.30 0.9889454
541.40 0.9892819
541.50 0.9896183
541.60 0.9899548
541.70 0.9902913
541.80 0.9906278
541.90 0.9909644
542.00 0.9913009
542.10 0.9916375
542.20 0.9919741
542.30 0.9923107
542.40 0.9926473
542.50 0.9929839
542.60 0.9933206
542.70 0.9936573
542.80 0.993994
542.90 0.9943307
543.00 0.9946674
543.10 0.9950042
543.20 0.995341
543.30 0.9956778
543.40 0.9960146
543.50 0.9963514
543.60 0.9966883
543.70 0.9970251
543.80 0.997362
543.90 0.9975453
544.00 0.9976385
544.10 0.9977317
544.20 0.9978248
544.30 0.997918
544.40 0.9980112
544.50 0.9981044
544.60 0.9981975
544.70 0.9982907
544.80 0.9983839
544.90 0.9984771
545.00 0.9985703
545.10 0.9986635
545.20 0.9987567
545.30 0.9988499
545.40 0.9989431
545.50 0.9990363
545.60 0.9991296
545.70 0.9992228
545.80 0.999316
545.90 0.9994092
546.00 0.9995025
546.10 0.9995957
546.20 0.999689
546.30 0.9997822
546.40 0.9998755
546.50 0.9999687
546.60 0.9999543
546.70 0.9997484
546.80 0.9995425
546.90 0.9993366
547.00 0.9991307
547.10 0.9989248
547.20 0.9987189
547.30 0.9985129
547.40 0.9983069
547.50 0.998101
547.60 0.997895
547.70 0.997689
547.80 0.9974829
547.90 0.9972769
548.00 0.9970708
548.10 0.9968648
548.20 0.9966587
548.30 0.9964526
548.40 0.9962465
548.50 0.9960404
548.60 0.9958342
548.70 0.9956281
548.80 0.9954219
548.90 0.9952157
549.00 0.9950095
549.10 0.9948033
549.20 0.9945971
549.30 0.9943909
549.40 0.9944436
549.50 0.99451
549.60 0.9945764
549.70 0.9946428
549.80 0.9947092
549.90 0.9947756
550.00 0.994842
550.10 0.9948925
550.20 0.994943
550.30 0.9949935
550.40 0.9950439
550.50 0.9950944
550.60 0.9951449
550.70 0.9951954
550.80 0.9952459
550.90 0.9952964
551.00 0.9953469
551.10 0.9953974
551.20 0.9954479
551.30 0.9954984
551.40 0.9955489
551.50 0.9955994
551.60 0.9956499
551.70 0.9957004
551.80 0.9957509
551.90 0.9958014
552.00 0.9958519
552.10 0.9958491
552.20 0.9957695
552.30 0.9956899
552.40 0.9956103
552.50 0.9955307
552.60 0.9954511
552.70 0.9953715
552.80 0.9952919
552.90 0.9952123
553.00 0.9951327
553.10 0.9950531
553.20 0.9949735
553.30 0.9948939
553.40 0.9948142
553.50 0.9947346
553.60 0.994655
553.70 0.9945754
553.80 0.9944957
553.90 0.9944161
554.00 0.9943365
554.10 0.9942568
554.20 0.9941772
554.30 0.9940975
554.40 0.9940179
554.50 0.9939382
554.60 0.9938586
554.70 0.9937789
554.80 0.9936993
554.90 0.9933555
555.00 0.9929089
555.10 0.9924623
555.20 0.9920157
555.30 0.9915691
555.40 0.9911225
555.50 0.9906759
555.60 0.9902293
555.70 0.9897826
555.80 0.989336
555.90 0.9888893
556.00 0.9884426
556.10 0.9879959
556.20 0.9875492
556.30 0.9871025
556.40 0.9866557
556.50 0.986209
556.60 0.9857622
556.70 0.9853154
556.80 0.9848687
556.90 0.9844218
557.00 0.983975
557.10 0.9835282
557.20 0.9830814
557.30 0.9826345
557.40 0.9821876
557.50 0.9817408
557.60 0.9812939
557.70 0.9812152
557.80 0.9811774
557.90 0.9811396
558.00 0.9811018
558.10 0.9810641
558.20 0.9810263
558.30 0.9809885
558.40 0.9809507
558.50 0.9809129
558.60 0.9808751
558.70 0.9808374
558.80 0.9807996
558.90 0.9807618
559.00 0.980724
559.10 0.9806862
559.20 0.9806484
559.30 0.9806106
559.40 0.9805728
559.50 0.980535
559.60 0.9804972
559.70 0.9804594
559.80 0.9804216
559.90 0.9803838
560.00 0.980346
560.10 0.9803082
560.20 0.9802704
560.30 0.9802325
560.40 0.9801947
560.50 0.9803306
560.60 0.9804776
560.70 0.9806246
560.80 0.9807716
560.90 0.9809186
561.00 0.9810656
561.10 0.9812126
561.20 0.9813596
561.30 0.9815066
561.40 0.9816536
561.50 0.9818006
561.60 0.9819477
561.70 0.9820947
561.80 0.9822417
561.90 0.9823887
562.00 0.9825358
562.10 0.9826828
562.20 0.9828299
562.30 0.9829769
562.40 0.983124
562.50 0.983271
562.60 0.9834181
562.70 0.9835651
562.80 0.9837122
562.90 0.9838593
563.00 0.9840063
563.10 0.9841534
563.20 0.9843005
563.30 0.9841985
563.40 0.984049
563.50 0.9838995
563.60 0.98375
563.70 0.9836005
563.80 0.983451
563.90 0.9833015
564.00 0.983152
564.10 0.9830025
564.20 0.982853
564.30 0.9827035
564.40 0.982554
564.50 0.9824045
564.60 0.9822549
564.70 0.9821054
564.80 0.9819559
564.90 0.9818063
565.00 0.9816568
565.10 0.9815072
565.20 0.9813577
565.30 0.9812081
565.40 0.9810585
565.50 0.980909
565.60 0.9807594
565.70 0.9806098
565.80 0.9804602
565.90 0.9803106
566.00 0.980161
566.10 0.9801108
566.20 0.9801295
566.30 0.9801483
566.40 0.9801671
566.50 0.9801859
566.60 0.9802046
566.70 0.9802234
566.80 0.9802422
566.90 0.9802609
567.00 0.9802797
567.10 0.9802985
567.20 0.9803173
567.30 0.980336
567.40 0.9803548
567.50 0.9803736
567.60 0.9803923
567.70 0.9804111
567.80 0.9804299
567.90 0.9804487
568.00 0.9804674
568.10 0.9804862
568.20 0.980505
568.30 0.9805237
568.40 0.9805425
568.50 0.9805613
568.60 0.9805801
568.70 0.9805988
568.80 0.9806176
568.90 0.9806895
569.00 0.9809609
569.10 0.9812324
569.20 0.9815039
569.30 0.9817755
569.40 0.982047
569.50 0.9823185
569.60 0.98259
569.70 0.9828616
569.80 0.9831331
569.90 0.9834047
570.00 0.9836762
570.10 0.9839478
570.20 0.9842194
570.30 0.9844909
570.40 0.9847625
570.50 0.9850341
570.60 0.9853057
570.70 0.9855773
570.80 0.985849
570.90 0.9861206
571.00 0.9863922
571.10 0.9866638
571.20 0.9869355
571.30 0.9872071
571.40 0.9874788
571.50 0.9877505
571.60 0.9880222
571.70 0.9882938
571.80 0.9884552
571.90 0.9885646
572.00 0.988674
572.10 0.9887834
572.20 0.9888928
572.30 0.9890022
572.40 0.9891116
572.50 0.9892211
572.60 0.9893305
572.70 0.9894399
572.80 0.9895494
572.90 0.9896588
573.00 0.9897682
573.10 0.9898777
573.20 0.9899871
573.30 0.9900966
573.40 0.990206
573.50 0.9903154
573.60 0.9904249
573.70 0.9905344
573.80 0.9906438
573.90 0.9907533
574.00 0.9908627
574.10 0.9909722
574.20 0.9910817
574.30 0.9911911
574.40 0.9913006
574.50 0.9914101
574.60 0.9915164
574.70 0.9913048
574.80 0.9910932
574.90 0.9908815
575.00 0.9906699
575.10 0.9904583
575.20 0.9902467
575.30 0.990035
575.40 0.9898234
575.50 0.9896117
575.60 0.9894001
575.70 0.9891884
575.80 0.9889767
575.90 0.9887651
576.00 0.9885534
576.10 0.9883417
576.20 0.98813
576.30 0.9879183
576.40 0.9877066
576.50 0.9874949
576.60 0.9872832
576.70 0.9870714
576.80 0.9868597
576.90 0.986648
577.00 0.9864362
577.10 0.9862245
577.20 0.9860127
577.30 0.9858009
577.40 0.9855892
577.50 0.9854175
577.60 0.9854063
577.70 0.9853951
577.80 0.985384
577.90 0.9853728
578.00 0.9853616
578.10 0.9853504
578.20 0.9853392
578.30 0.985328
578.40 0.9853168
578.50 0.9853056
578.60 0.9852944
578.70 0.9852832
578.80 0.985272
578.90 0.9852609
579.00 0.9852497
579.10 0.9852385
579.20 0.9852273
579.30 0.9852161
579.40 0.9852049
579.50 0.9851937
579.60 0.9851825
579.70 0.9851713
579.80 0.9851601
579.90 0.9851489
580.00 0.9851377
580.10 0.9851265
580.20 0.9851153
580.30 0.9851041
580.40 0.9850845
580.50 0.9850387
580.60 0.9849929
580.70 0.984947
580.80 0.9849012
580.90 0.9848554
581.00 0.9848095
581.10 0.9847637
581.20 0.9847178
581.30 0.984672
581.40 0.9846261
581.50 0.9845803
581.60 0.9845344
581.70 0.9844886
581.80 0.9844427
581.90 0.9843969
582.00 0.984351
582.10 0.9843052
582.20 0.9842593
582.30 0.9842134
582.40 0.9841676
582.50 0.9841217
582.60 0.9840758
582.70 0.98403
582.80 0.9839841
582.90 0.9839382
583.00 0.9838924
583.10 0.9838465
583.20 0.9838006
583.30 0.9836822
583.40 0.9831178
583.50 0.9825535
583.60 0.9819892
583.70 0.9814248
583.80 0.9808605
583.90 0.9802961
584.00 0.9797317
584.10 0.9791673
584.20 0.9786028
584.30 0.9780384
584.40 0.9774739
584.50 0.9769094
584.60 0.9763449
584.70 0.9757804
584.80 0.9752159
584.90 0.9746513
585.00 0.9740868
585.10 0.9735222
585.20 0.9729576
585.30 0.972393
585.40 0.9718284
585.50 0.9712637
585.60 0.9706991
585.70 0.9701344
585.80 0.9695697
585.90 0.969005
586.00 0.9684403
586.10 0.9678755
586.20 0.9673108
586.30 0.9667047
586.40 0.9660935
586.50 0.9654822
586.60 0.964871
586.70 0.9642597
586.80 0.9636484
586.90 0.9630371
587.00 0.9624258
587.10 0.9618144
587.20 0.9612031
587.30 0.9605917
587.40 0.9599803
587.50 0.9593689
587.60 0.9587574
587.70 0.958146
587.80 0.9575345
587.90 0.956923
588.00 0.9563115
588.10 0.9557
588.20 0.9550885
588.30 0.9544769
588.40 0.9538654
588.50 0.9532538
588.60 0.9526422
588.70 0.9520306
588.80 0.9514189
588.90 0.9508073
589.00 0.9501956
589.10 0.9495839
589.20 0.9493532
589.30 0.9495034
589.40 0.9496537
589.50 0.9498039
589.60 0.9499542
589.70 0.9501045
589.80 0.9502548
589.90 0.950405
590.00 0.9505553
590.10 0.9507056
590.20 0.9508559
590.30 0.9510062
590.40 0.9511565
590.50 0.9513068
590.60 0.9514571
590.70 0.9516074
590.80 0.9517577
590.90 0.951908
591.00 0.9520583
591.10 0.9522087
591.20 0.952359
591.30 0.9525093
591.40 0.9526596
591.50 0.95281
591.60 0.9529603
591.70 0.9531107
591.80 0.953261
591.90 0.9534114
592.00 0.9535617
592.10 0.9537121
592.20 0.9539591
592.30 0.9542111
592.40 0.9544632
592.50 0.9547153
592.60 0.9549673
592.70 0.9552194
592.80 0.9554715
592.90 0.9557236
593.00 0.9559757
593.10 0.9562278
593.20 0.9564799
593.30 0.9567321
593.40 0.9569842
593.50 0.9572363
593.60 0.9574885
593.70 0.9577406
593.80 0.9579928
593.90 0.958245
594.00 0.9584971
594.10 0.9587493
594.20 0.9590015
594.30 0.9592537
594.40 0.9595059
594.50 0.9597581
594.60 0.9600103
594.70 0.9602625
594.80 0.9605147
594.90 0.960767
595.00 0.9610192
595.10 0.9611627
595.20 0.9609966
595.30 0.9608305
595.40 0.9606644
595.50 0.9604983
595.60 0.9603321
595.70 0.960166
595.80 0.9599999
595.90 0.9598338
596.00 0.9596676
596.10 0.9595015
596.20 0.9593353
596.30 0.9591692
596.40 0.959003
596.50 0.9588369
596.60 0.9586707
596.70 0.9585045
596.80 0.9583383
596.90 0.9581722
597.00 0.958006
597.10 0.9578398
597.20 0.9576736
597.30 0.9575074
597.40 0.9573412
597.50 0.9571749
597.60 0.9570087
597.70 0.9568425
597.80 0.9566763
597.90 0.95651
598.00 0.9563438
598.10 0.9561252
598.20 0.9558343
598.30 0.9555434
598.40 0.9552525
598.50 0.9549616
598.60 0.9546707
598.70 0.9543798
598.80 0.9540888
598.90 0.9537979
599.00 0.9535069
599.10 0.953216
599.20 0.952925
599.30 0.952634
599.40 0.952343
599.50 0.952052
599.60 0.951761
599.70 0.95147
599.80 0.951179
599.90 0.9508879
600.00 0.9505969
600.10 0.9503021
600.20 0.9500073
600.30 0.9497124
600.40 0.9494176
600.50 0.9491227
600.60 0.9488279
600.70 0.948533
600.80 0.9482381
600.90 0.9479433
601.00 0.9476484
601.10 0.947474
601.20 0.9474594
601.30 0.9474448
601.40 0.9474302
601.50 0.9474155
601.60 0.9474009
601.70 0.9473863
601.80 0.9473717
601.90 0.947357
602.00 0.9473424
602.10 0.9473278
602.20 0.9473132
602.30 0.9472985
602.40 0.9472839
602.50 0.9472693
602.60 0.9472546
602.70 0.94724
602.80 0.9472254
602.90 0.9472108
603.00 0.9471961
603.10 0.9471815
603.20 0.9471669
603.30 0.9471522
603.40 0.9471376
603.50 0.947123
603.60 0.9471083
603.70 0.9470937
603.80 0.9470791
603.90 0.9470644
604.00 0.9470498
604.10 0.9469839
604.20 0.9467923
604.30 0.9466008
604.40 0.9464093
604.50 0.9462178
604.60 0.9460262
604.70 0.9458347
604.80 0.9456432
604.90 0.9454516
605.00 0.9452601
605.10 0.9450685
605.20 0.944877
605.30 0.9446854
605.40 0.9444939
605.50 0.9443023
605.60 0.9441107
605.70 0.9439191
605.80 0.9437276
605.90 0.943536
606.00 0.9433444
606.10 0.9431528
606.20 0.9429612
606.30 0.9427696
606.40 0.942578
606.50 0.9423864
606.60 0.9421948
606.70 0.9420032
606.80 0.9418116
606.90 0.9416199
607.00 0.9414283
607.10 0.9412367
607.20 0.9406508
607.30 0.940065
607.40 0.9394791
607.50 0.9388932
607.60 0.9383073
607.70 0.9377214
607.80 0.9371355
607.90 0.9365496
608.00 0.9359636
608.10 0.9353777
608.20 0.9347917
608.30 0.9342057
608.40 0.9336197
608.50 0.9330337
608.60 0.9324477
608.70 0.9318617
608.80 0.9312756
608.90 0.9306896
609.00 0.9301035
609.10 0.9295174
609.20 0.9289313
609.30 0.9283452
609.40 0.9277591
609.50 0.927173
609.60 0.9265869
609.70 0.9260007
609.80 0.9254146
609.90 0.9248284
610.00 0.9242422
610.10 0.923656
610.20 0.9230132
610.30 0.9223259
610.40 0.9216385
610.50 0.9209511
610.60 0.9202637
610.70 0.9195764
610.80 0.9188889
610.90 0.9182015
611.00 0.9175141
611.10 0.9168266
611.20 0.9161392
611.30 0.9154517
611.40 0.9147642
611.50 0.9140767
611.60 0.9133892
611.70 0.9127016
611.80 0.9120141
611.90 0.9113265
612.00 0.9106389
612.10 0.9099513
612.20 0.9092637
612.30 0.9085761
612.40 0.9078885
612.50 0.9072008
612.60 0.9065132
612.70 0.9058255
612.80 0.9051378
612.90 0.9044501
613.00 0.9037624
613.10 0.9030747
613.20 0.9023869
613.30 0.9020918
613.40 0.9018131
613.50 0.9015343
613.60 0.9012555
613.70 0.9009768
613.80 0.900698
613.90 0.9004192
614.00 0.9001404
614.10 0.8998616
614.20 0.8995828
614.30 0.899304
614.40 0.8990252
614.50 0.8987464
614.60 0.8984676
614.70 0.8981887
614.80 0.8979099
614.90 0.897631
615.00 0.8973522
615.10 0.8970733
615.20 0.8967945
615.30 0.8965156
615.40 0.8962368
615.50 0.8959579
615.60 0.895679
615.70 0.8954001
615.80 0.8951212
615.90 0.8948423
616.00 0.8945634
616.10 0.8942845
616.20 0.8940056
616.30 0.8938265
616.40 0.8940232
616.50 0.8942199
616.60 0.8944165
616.70 0.8946132
616.80 0.8948099
616.90 0.8950066
617.00 0.8952032
617.10 0.8953999
617.20 0.8955966
617.30 0.8957933
617.40 0.89599
617.50 0.8961867
617.60 0.8963834
617.70 0.8965801
617.80 0.8967768
617.90 0.8969735
618.00 0.8971702
618.10 0.897367
618.20 0.8975637
618.30 0.8977604
618.40 0.8979572
618.50 0.8981539
618.60 0.8983506
618.70 0.8985474
618.80 0.8987441
618.90 0.8989409
619.00 0.8991376
619.10 0.8993344
619.20 0.8995312
619.30 0.8997279
619.40 0.8998114
619.50 0.8996428
619.60 0.8994742
619.70 0.8993055
619.80 0.8991369
619.90 0.8989683
620.00 0.8987996
620.10 0.898631
620.20 0.8984623
620.30 0.8982937
620.40 0.898125
620.50 0.8979564
620.60 0.8977877
620.70 0.897619
620.80 0.8974504
620.90 0.8972817
621.00 0.897113
621.10 0.8969443
621.20 0.8967756
621.30 0.896607
621.40 0.8964383
621.50 0.8962696
621.60 0.8961009
621.70 0.8959322
621.80 0.8957635
621.90 0.8955948
622.00 0.895426
622.10 0.8952573
622.20 0.8950886
622.30 0.8949199
622.40 0.8947512
622.50 0.8945664
622.60 0.8943334
622.70 0.8941004
622.80 0.8938674
622.90 0.8936344
623.00 0.8934013
623.10 0.8931683
623.20 0.8929353
623.30 0.8927023
623.40 0.8924692
623.50 0.8922362
623.60 0.8920031
623.70 0.8917701
623.80 0.891537
623.90 0.891304
624.00 0.8910709
624.10 0.8908379
624.20 0.8906048
624.30 0.8903717
624.40 0.8901386
624.50 0.8899055
624.60 0.8896724
624.70 0.8894393
624.80 0.8892062
624.90 0.8889731
625.00 0.88874
625.10 0.8885069
625.20 0.8882738
625.30 0.8880407
625.40 0.8878075
625.50 0.8875744
625.60 0.887352
625.70 0.8873886
625.80 0.8874252
625.90 0.8874617
626.00 0.8874983
626.10 0.8875348
626.20 0.8875714
626.30 0.8876079
626.40 0.8876445
626.50 0.8876811
626.60 0.8877176
626.70 0.8877542
626.80 0.8877907
626.90 0.8878273
627.00 0.8878639
627.10 0.8879004
627.20 0.887937
627.30 0.8879735
627.40 0.8880101
627.50 0.8880467
627.60 0.8880832
627.70 0.8881198
627.80 0.8881564
627.90 0.8881929
628.00 0.8882295
628.10 0.8882661
628.20 0.8883026
628.30 0.8883392
628.40 0.8883758
628.50 0.8884123
628.60 0.8884489
628.70 0.8884855
628.80 0.8883547
628.90 0.8881377
629.00 0.8879207
629.10 0.8877036
629.20 0.8874866
629.30 0.8872696
629.40 0.8870526
629.50 0.8868355
629.60 0.8866185
629.70 0.8864014
629.80 0.8861844
629.90 0.8859673
630.00 0.8857503
630.10 0.8855332
630.20 0.8853161
630.30 0.8850991
630.40 0.884882
630.50 0.8846649
630.60 0.8844478
630.70 0.8842307
630.80 0.8840136
630.90 0.8837966
631.00 0.8835794
631.10 0.8833623
631.20 0.8831452
631.30 0.8829281
631.40 0.882711
631.50 0.8824939
631.60 0.8822767
631.70 0.8820596
631.80 0.8818425
631.90 0.8816313
632.00 0.8814566
632.10 0.8812819
632.20 0.8811072
632.30 0.8809326
632.40 0.8807579
632.50 0.8805832
632.60 0.8804085
632.70 0.8802338
632.80 0.8800591
632.90 0.8798844
633.00 0.8797097
633.10 0.879535
633.20 0.8793603
633.30 0.8791855
633.40 0.8790108
633.50 0.8788361
633.60 0.8786614
633.70 0.8784866
633.80 0.8783119
633.90 0.8781372
634.00 0.8779624
634.10 0.8777877
634.20 0.8776129
634.30 0.8774382
634.40 0.8772634
634.50 0.8770886
634.60 0.8769139
634.70 0.8767391
634.80 0.8765643
634.90 0.8763895
635.00 0.8762148
635.10 0.8760691
635.20 0.8759591
635.30 0.8758491
635.40 0.8757391
635.50 0.8756291
635.60 0.875519
635.70 0.875409
635.80 0.875299
635.90 0.8751889
636.00 0.8750789
636.10 0.8749689
636.20 0.8748588
636.30 0.8747488
636.40 0.8746387
636.50 0.8745287
636.60 0.8744187
636.70 0.8743086
636.80 0.8741985
636.90 0.8740885
637.00 0.8739784
637.10 0.8738684
637.20 0.8737583
637.30 0.8736482
637.40 0.8735382
637.50 0.8734281
637.60 0.873318
637.70 0.873208
637.80 0.8730979
637.90 0.8729878
638.00 0.8728777
638.10 0.8727676
638.20 0.8726576
638.30 0.8724703
638.40 0.8722336
638.50 0.871997
638.60 0.8717604
638.70 0.8715237
638.80 0.871287
638.90 0.8710504
639.00 0.8708137
639.10 0.870577
639.20 0.8703404
639.30 0.8701037
639.40 0.869867
639.50 0.8696303
639.60 0.8693936
639.70 0.8691569
639.80 0.8689202
639.90 0.8686835
640.00 0.8684468
640.10 0.8682101
640.20 0.8679733
640.30 0.8677366
640.40 0.8674999
640.50 0.8672631
640.60 0.8670264
640.70 0.8667896
640.80 0.8665529
640.90 0.8663161
641.00 0.8660794
641.10 0.8658426
641.20 0.8656058
641.30 0.8653691
641.40 0.8651323
641.50 0.8649097
641.60 0.8646967
641.70 0.8644837
641.80 0.8642706
641.90 0.8640576
642.00 0.8638445
642.10 0.8636315
642.20 0.8634184
642.30 0.8632053
642.40 0.8629922
642.50 0.8627792
642.60 0.8625661
642.70 0.862353
642.80 0.8621399
642.90 0.8619268
643.00 0.8617137
643.10 0.8615006
643.20 0.8612875
643.30 0.8610744
643.40 0.8608613
643.50 0.8606482
643.60 0.860435
643.70 0.8602219
643.80 0.8600088
643.90 0.8597956
644.00 0.8595825
644.10 0.8593694
644.20 0.8591562
644.30 0.8589431
644.40 0.8587299
644.50 0.8585167
644.60 0.8583036
644.70 0.8580949
644.80 0.8578919
644.90 0.8576888
645.00 0.8574858
645.10 0.8572828
645.20 0.8570798
645.30 0.8568767
645.40 0.8566737
645.50 0.8564707
645.60 0.8562676
645.70 0.8560646
645.80 0.8558615
645.90 0.8556584
646.00 0.8554554
646.10 0.8552523
646.20 0.8550493
646.30 0.8548462
646.40 0.8546431
646.50 0.85444
646.60 0.8542369
646.70 0.8540338
646.80 0.8538307
646.90 0.8536276
647.00 0.8534245
647.10 0.8532214
647.20 0.8530183
647.30 0.8528152
647.40 0.8526121
647.50 0.852409
647.60 0.8522058
647.70 0.8520027
647.80 0.8517996
647.90 0.8515955
648.00 0.8513845
648.10 0.8511734
648.20 0.8509624
648.30 0.8507513
648.40 0.8505402
648.50 0.8503291
648.60 0.850118
648.70 0.8499069
648.80 0.8496958
648.90 0.8494847
649.00 0.8492736
649.10 0.8490625
649.20 0.8488514
649.30 0.8486403
649.40 0.8484292
649.50 0.848218
649.60 0.8480069
649.70 0.8477958
649.80 0.8475846
649.90 0.8473735
650.00 0.8471623
650.10 0.8469462
650.20 0.84673
650.30 0.8465138
650.40 0.8462976
650.50 0.8460815
650.60 0.8458653
650.70 0.8456491
650.80 0.8454329
650.90 0.8452167
651.00 0.8450005
651.10 0.8447843
651.20 0.8443256
651.30 0.8437181
651.40 0.8431106
651.50 0.8425032
651.60 0.8418957
651.70 0.8412882
651.80 0.8406808
651.90 0.8400733
652.00 0.8394658
652.10 0.8388583
652.20 0.8382508
652.30 0.8376433
652.40 0.8370358
652.50 0.8364283
652.60 0.8358208
652.70 0.8352133
652.80 0.8346057
652.90 0.8339982
653.00 0.8333907
653.10 0.8327831
653.20 0.8321756
653.30 0.8315681
653.40 0.8309605
653.50 0.8303529
653.60 0.8297454
653.70 0.8291378
653.80 0.8285302
653.90 0.8279227
654.00 0.8273151
654.10 0.8267075
654.20 0.8260999
654.30 0.8254923
654.40 0.8248847
654.50 0.8245857
654.60 0.8242962
654.70 0.8240066
654.80 0.8237171
654.90 0.8234276
655.00 0.8231381
655.10 0.8228486
655.20 0.8225591
655.30 0.8222696
655.40 0.82198
655.50 0.8216905
655.60 0.821401
655.70 0.8211115
655.80 0.8208219
655.90 0.8205324
656.00 0.8202429
656.10 0.8199533
656.20 0.8196638
656.30 0.8193742
656.40 0.8190847
656.50 0.8187951
656.60 0.8185056
656.70 0.818216
656.80 0.8179265
656.90 0.8176369
657.00 0.8173474
657.10 0.8170578
657.20 0.8167682
657.30 0.8164787
657.40 0.8161891
657.50 0.8158995
657.60 0.81561
657.70 0.8154312
657.80 0.8158803
657.90 0.8163294
658.00 0.8167786
658.10 0.8172277
658.20 0.8176768
658.30 0.818126
658.40 0.8185751
658.50 0.8190242
658.60 0.8194734
658.70 0.8199225
658.80 0.8203717
658.90 0.8208209
659.00 0.82127
659.10 0.8217192
659.20 0.8221684
659.30 0.8226175
659.40 0.8230667
659.50 0.8235159
659.60 0.8239651
659.70 0.8244143
659.80 0.8248635
659.90 0.8253126
660.00 0.8257618
660.10 0.826211
660.20 0.8266603
660.30 0.8271095
660.40 0.8275587
660.50 0.8280079
660.60 0.8284571
660.70 0.8289063
660.80 0.8293556
660.90 0.8298048
661.00 0.8301917
661.10 0.830274
661.20 0.8303564
661.30 0.8304388
661.40 0.8305212
661.50 0.8306035
661.60 0.8306859
661.70 0.8307683
661.80 0.8308507
661.90 0.830933
662.00 0.8310154
662.10 0.8310978
662.20 0.8311802
662.30 0.8312626
662.40 0.8313449
662.50 0.8314273
662.60 0.8315097
662.70 0.8315921
662.80 0.8316745
662.90 0.8317569
663.00 0.8318392
663.10 0.8319216
663.20 0.832004
663.30 0.8320864
663.40 0.8321688
663.50 0.8322512
663.60 0.8323336
663.70 0.832416
663.80 0.8324984
663.90 0.8325807
664.00 0.8326631
664.10 0.8327455
664.20 0.8328279
664.30 0.8329036
664.40 0.8327626
664.50 0.8326216
664.60 0.8324806
664.70 0.8323396
664.80 0.8321986
664.90 0.8320576
665.00 0.8319166
665.10 0.8317756
665.20 0.8316346
665.30 0.8314936
665.40 0.8313526
665.50 0.8312116
665.60 0.8310706
665.70 0.8309296
665.80 0.8307886
665.90 0.8306476
666.00 0.8305066
666.10 0.8303656
666.20 0.8302245
666.30 0.8300835
666.40 0.8299425
666.50 0.8298015
666.60 0.8296605
666.70 0.8295195
666.80 0.8293784
666.90 0.8292374
667.00 0.8290964
667.10 0.8289554
667.20 0.8288143
667.30 0.8286733
667.40 0.8285323
667.50 0.8283913
667.60 0.8282502
667.70 0.8280784
667.80 0.8278946
667.90 0.8277108
668.00 0.827527
668.10 0.8273432
668.20 0.8271594
668.30 0.8269755
668.40 0.8267917
668.50 0.8266079
668.60 0.8264241
668.70 0.8262403
668.80 0.8260564
668.90 0.8258726
669.00 0.8256888
669.10 0.825505
669.20 0.8253211
669.30 0.8251373
669.40 0.8249535
669.50 0.8247697
669.60 0.8245858
669.70 0.824402
669.80 0.8242182
669.90 0.8240343
670.00 0.8238505
670.10 0.8236666
670.20 0.8234828
670.30 0.823299
670.40 0.8231151
670.50 0.8229313
670.60 0.8227474
670.70 0.8225636
670.80 0.8223797
670.90 0.8221959
671.00 0.8220143
671.10 0.8218401
671.20 0.8216658
671.30 0.8214916
671.40 0.8213173
671.50 0.8211431
671.60 0.8209688
671.70 0.8207945
671.80 0.8206203
671.90 0.820446
672.00 0.8202717
672.10 0.8200975
672.20 0.8199232
672.30 0.8197489
672.40 0.8195747
672.50 0.8194004
672.60 0.8192261
672.70 0.8190519
672.80 0.8188776
672.90 0.8187033
673.00 0.818529
673.10 0.8183548
673.20 0.8181805
673.30 0.8180062
673.40 0.8178319
673.50 0.8176576
673.60 0.8174833
673.70 0.817309
673.80 0.8171348
673.90 0.8169605
674.00 0.8167862
674.10 0.8166119
674.20 0.8164376
674.30 0.8162633
674.40 0.8160844
674.50 0.8159023
674.60 0.8157202
674.70 0.8155382
674.80 0.8153561
674.90 0.815174
675.00 0.8149919
675.10 0.8148098
675.20 0.8146277
675.30 0.8144457
675.40 0.8142636
675.50 0.8140815
675.60 0.8138994
675.70 0.8137173
675.80 0.8135352
675.90 0.8133531
676.00 0.813171
676.10 0.8129889
676.20 0.8128068
676.30 0.8126247
676.40 0.8124426
676.50 0.8122605
676.60 0.8120784
676.70 0.8118963
676.80 0.8117141
676.90 0.811532
677.00 0.8113499
677.10 0.8111678
677.20 0.8109857
677.30 0.8108036
677.40 0.8106214
677.50 0.8104393
677.60 0.8102572
677.70 0.8100751
677.80 0.809867
677.90 0.8096515
678.00 0.8094361
678.10 0.8092206
678.20 0.8090052
678.30 0.8087897
678.40 0.8085743
678.50 0.8083588
678.60 0.8081434
678.70 0.8079279
678.80 0.8077125
678.90 0.807497
679.00 0.8072815
679.10 0.8070661
679.20 0.8068506
679.30 0.8066352
679.40 0.8064197
679.50 0.8062042
679.60 0.8059887
679.70 0.8057733
679.80 0.8055578
679.90 0.8053423
680.00 0.8051268
680.10 0.8049114
680.20 0.8046959
680.30 0.8044804
680.40 0.8042649
680.50 0.8040494
680.60 0.8038339
680.70 0.8036184
680.80 0.8034029
680.90 0.8031875
681.00 0.802972
681.10 0.8027565
681.20 0.8025485
681.30 0.8023426
681.40 0.8021366
681.50 0.8019307
681.60 0.8017247
681.70 0.8015188
681.80 0.8013128
681.90 0.8011069
682.00 0.8009009
682.10 0.800695
682.20 0.800489
682.30 0.8002831
682.40 0.8000771
682.50 0.7998711
682.60 0.7996652
682.70 0.7994592
682.80 0.7992533
682.90 0.7990473
683.00 0.7988413
683.10 0.7986353
683.20 0.7984294
683.30 0.7982234
683.40 0.7980174
683.50 0.7978114
683.60 0.7976055
683.70 0.7973995
683.80 0.7971935
683.90 0.7969875
684.00 0.7967815
684.10 0.7965755
684.20 0.7963696
684.30 0.7961636
684.40 0.7959576
684.50 0.7957516
684.60 0.7956006
684.70 0.7954806
684.80 0.7953607
684.90 0.7952407
685.00 0.7951207
685.10 0.7950007
685.20 0.7948807
685.30 0.7947607
685.40 0.7946407
685.50 0.7945207
685.60 0.7944007
685.70 0.7942807
685.80 0.7941607
685.90 0.7940407
686.00 0.7939207
686.10 0.7938007
686.20 0.7936807
686.30 0.7935607
686.40 0.7934407
686.50 0.7933207
686.60 0.7932007
686.70 0.7930807
686.80 0.7929607
686.90 0.7928407
687.00 0.7927207
687.10 0.7926007
687.20 0.7924807
687.30 0.7923607
687.40 0.7922407
687.50 0.7921206
687.60 0.7920006
687.70 0.7918806
687.80 0.7917606
687.90 0.7916406
688.00 0.7915142
688.10 0.7913737
688.20 0.7912331
688.30 0.7910926
688.40 0.790952
688.50 0.7908115
688.60 0.790671
688.70 0.7905304
688.80 0.7903899
688.90 0.7902493
689.00 0.7901088
689.10 0.7899682
689.20 0.7898277
689.30 0.7896871
689.40 0.7895466
689.50 0.789406
689.60 0.7892654
689.70 0.7891249
689.80 0.7889843
689.90 0.7888438
690.00 0.7887032
690.10 0.7885626
690.20 0.7884221
690.30 0.7882815
690.40 0.7881409
690.50 0.7880004
690.60 0.7878598
690.70 0.7877192
690.80 0.7875787
690.90 0.7874381
691.00 0.7872975
691.10 0.787157
691.20 0.7870164
691.30 0.7868758
691.40 0.7867352
691.50 0.7865407
691.60 0.7863336
691.70 0.7861264
691.80 0.7859192
691.90 0.7857121
692.00 0.7855049
692.10 0.7852978
692.20 0.7850906
692.30 0.7848834
692.40 0.7846762
692.50 0.7844691
692.60 0.7842619
692.70 0.7840547
692.80 0.7838475
692.90 0.7836404
693.00 0.7834332
693.10 0.783226
693.20 0.7830188
693.30 0.7828116
693.40 0.7826044
693.50 0.7823972
693.60 0.7821901
693.70 0.7819829
693.80 0.7817757
693.90 0.7815685
694.00 0.7813613
694.10 0.7811541
694.20 0.7809469
694.30 0.7807397
694.40 0.7805325
694.50 0.7803253
694.60 0.780118
694.70 0.7799108
694.80 0.7797036
694.90 0.7794913
695.00 0.7792474
695.10 0.7790036
695.20 0.7787597
695.30 0.7785158
695.40 0.778272
695.50 0.7780281
695.60 0.7777842
695.70 0.7775404
695.80 0.7772965
695.90 0.7770526
696.00 0.7768088
696.10 0.7765649
696.20 0.776321
696.30 0.7760771
696.40 0.7758332
696.50 0.7755893
696.60 0.7753455
696.70 0.7751016
696.80 0.7748577
696.90 0.7746138
697.00 0.7743699
697.10 0.774126
697.20 0.7738821
697.30 0.7736382
697.40 0.7733943
697.50 0.7731504
697.60 0.7729065
697.70 0.7726626
697.80 0.7724187
697.90 0.7721747
698.00 0.7719308
698.10 0.7716869
698.20 0.771443
698.30 0.7711991
698.40 0.7709568
698.50 0.7707183
698.60 0.7704798
698.70 0.7702413
698.80 0.7700028
698.90 0.7697643
699.00 0.7695258
699.10 0.7692873
699.20 0.7690488
699.30 0.7688103
699.40 0.7685718
699.50 0.7683333
699.60 0.7680948
699.70 0.7678563
699.80 0.7676177
699.90 0.7673792
700.00 0.7671407
700.10 0.7668992
700.20 0.7666576
700.30 0.7664161
700.40 0.7661745
700.50 0.765933
700.60 0.7656914
700.70 0.7654499
700.80 0.7652083
700.90 0.7649668
701.00 0.7647252
701.10 0.7644837
701.20 0.7642421
701.30 0.7640006
701.40 0.763759
701.50 0.7635175
701.60 0.763276
701.70 0.7630344
701.80 0.7627929
701.90 0.762583
702.00 0.7624545
702.10 0.7623261
702.20 0.7621977
702.30 0.7620692
702.40 0.7619408
702.50 0.7618123
702.60 0.7616839
702.70 0.7615554
702.80 0.761427
702.90 0.7612986
703.00 0.7611701
703.10 0.7610417
703.20 0.7609132
703.30 0.7607848
703.40 0.7606563
703.50 0.7605279
703.60 0.7603995
703.70 0.760271
703.80 0.7601426
703.90 0.7600141
704.00 0.7598857
704.10 0.7597573
704.20 0.7596288
704.30 0.7595004
704.40 0.7593719
704.50 0.7592435
704.60 0.759115
704.70 0.7589866
704.80 0.7588582
704.90 0.7587297
705.00 0.7586013
705.10 0.7584728
705.20 0.7583444
705.30 0.7582159
705.40 0.7580843
705.50 0.7579152
705.60 0.7577461
705.70 0.7575771
705.80 0.757408
705.90 0.757239
706.00 0.7570699
706.10 0.7569008
706.20 0.7567318
706.30 0.7565627
706.40 0.7563937
706.50 0.7562246
706.60 0.7560555
706.70 0.7558865
706.80 0.7557174
706.90 0.7555484
707.00 0.7553793
707.10 0.7552103
707.20 0.7550412
707.30 0.7548721
707.40 0.7547031
707.50 0.754534
707.60 0.754365
707.70 0.7541959
707.80 0.7540268
707.90 0.7538578
708.00 0.7536887
708.10 0.7535197
708.20 0.7533506
708.30 0.7531815
708.40 0.7530125
708.50 0.7528434
708.60 0.7526744
708.70 0.7525053
708.80 0.7523363
708.90 0.7521672
709.00 0.7519259
709.10 0.7516552
709.20 0.7513844
709.30 0.7511136
709.40 0.7508429
709.50 0.7505721
709.60 0.7503013
709.70 0.7500306
709.80 0.7497598
709.90 0.749489
710.00 0.7492183
710.10 0.7489475
710.20 0.7486767
710.30 0.748406
710.40 0.7481352
710.50 0.7478644
710.60 0.7475937
710.70 0.7473229
710.80 0.7470521
710.90 0.7467814
711.00 0.7465106
711.10 0.7462399
711.20 0.7459691
711.30 0.7456983
711.40 0.7454276
711.50 0.7451568
711.60 0.744886
711.70 0.7446153
711.80 0.7443445
711.90 0.7440737
712.00 0.743803
712.10 0.7435322
712.20 0.7432614
712.30 0.7429907
712.40 0.7427199
712.50 0.7424428
712.60 0.7421326
712.70 0.7418224
712.80 0.7415122
712.90 0.7412019
713.00 0.7408917
713.10 0.7405815
713.20 0.7402713
713.30 0.7399611
713.40 0.7396508
713.50 0.7393406
713.60 0.7390304
713.70 0.7387202
713.80 0.73841
713.90 0.7380997
714.00 0.7377895
714.10 0.7374793
714.20 0.7371691
714.30 0.7368589
714.40 0.7365486
714.50 0.7362384
714.60 0.7359282
714.70 0.735618
714.80 0.7353078
714.90 0.7349975
715.00 0.7346873
715.10 0.7343771
715.20 0.7340669
715.30 0.7337567
715.40 0.7334464
715.50 0.7331362
715.60 0.732826
715.70 0.7325158
715.80 0.7322056
715.90 0.7318953
716.00 0.7315851
716.10 0.7313192
716.20 0.731112
716.30 0.7309048
716.40 0.7306976
716.50 0.7304905
716.60 0.7302833
716.70 0.7300761
716.80 0.7298689
716.90 0.7296617
717.00 0.7294545
717.10 0.7292473
717.20 0.7290401
717.30 0.728833
717.40 0.7286258
717.50 0.7284186
717.60 0.7282114
717.70 0.7280042
717.80 0.727797
717.90 0.7275898
718.00 0.7273826
718.10 0.7271755
718.20 0.7269683
718.30 0.7267611
718.40 0.7265539
718.50 0.7263467
718.60 0.7261395
718.70 0.7259323
718.80 0.7257251
718.90 0.7255179
719.00 0.7253108
719.10 0.7251036
719.20 0.7248964
719.30 0.7246892
719.40 0.724482
719.50 0.7242748
719.60 0.7240676
719.70 0.7239488
719.80 0.7239084
719.90 0.723868
720.00 0.7238276
720.10 0.7237872
720.20 0.7237468
720.30 0.7237064
720.40 0.723666
720.50 0.7236255
720.60 0.7235851
720.70 0.7235447
720.80 0.7235043
720.90 0.7234639
721.00 0.7234235
721.10 0.7233831
721.20 0.7233427
721.30 0.7233023
721.40 0.7232618
721.50 0.7232214
721.60 0.723181
721.70 0.7231406
721.80 0.7231002
721.90 0.7230598
722.00 0.7230194
722.10 0.722979
722.20 0.7229386
722.30 0.7228981
722.40 0.7228577
722.50 0.7228173
722.60 0.7227769
722.70 0.7227365
722.80 0.7226961
722.90 0.7226557
723.00 0.7226153
723.10 0.7225749
723.20 0.7225344
723.30 0.722457
723.40 0.7223323
723.50 0.7222077
723.60 0.722083
723.70 0.7219584
723.80 0.7218337
723.90 0.721709
724.00 0.7215844
724.10 0.7214597
724.20 0.7213351
724.30 0.7212104
724.40 0.7210858
724.50 0.7209611
724.60 0.7208365
724.70 0.7207118
724.80 0.7205872
724.90 0.7204625
725.00 0.7203379
725.10 0.7202132
725.20 0.7200886
725.30 0.7199639
725.40 0.7198392
725.50 0.7197146
725.60 0.7195899
725.70 0.7194653
725.80 0.7193406
725.90 0.719216
726.00 0.7190913
726.10 0.7189667
726.20 0.718842
726.30 0.7187174
726.40 0.7185927
726.50 0.7184681
726.60 0.7183434
726.70 0.7182188
726.80 0.7180941
726.90 0.7179587
727.00 0.7177706
727.10 0.7175826
727.20 0.7173945
727.30 0.7172064
727.40 0.7170184
727.50 0.7168303
727.60 0.7166423
727.70 0.7164542
727.80 0.7162662
727.90 0.7160781
728.00 0.71589
728.10 0.715702
728.20 0.7155139
728.30 0.7153259
728.40 0.7151378
728.50 0.7149498
728.60 0.7147617
728.70 0.7145737
728.80 0.7143856
728.90 0.7141975
729.00 0.7140095
729.10 0.7138214
729.20 0.7136334
729.30 0.7134453
729.40 0.7132573
729.50 0.7130692
729.60 0.7128811
729.70 0.7126931
729.80 0.712505
729.90 0.712317
730.00 0.7121289
730.10 0.7119409
730.20 0.7117528
730.30 0.7115647
730.40 0.7113767
730.50 0.7111886
730.60 0.7110557
730.70 0.7109442
730.80 0.7108327
730.90 0.7107213
731.00 0.7106098
731.10 0.7104983
731.20 0.7103868
731.30 0.7102753
731.40 0.7101638
731.50 0.7100524
731.60 0.7099409
731.70 0.7098294
731.80 0.7097179
731.90 0.7096064
732.00 0.7094949
732.10 0.7093835
732.20 0.709272
732.30 0.7091605
732.40 0.709049
732.50 0.7089375
732.60 0.708826
732.70 0.7087146
732.80 0.7086031
732.90 0.7084916
733.00 0.7083801
733.10 0.7082686
733.20 0.7081571
733.30 0.7080457
733.40 0.7079342
733.50 0.7078227
733.60 0.7077112
733.70 0.7075997
733.80 0.7074882
733.90 0.7073768
734.00 0.7072653
734.10 0.7071538
734.20 0.7070299
734.30 0.7067803
734.40 0.7065308
734.50 0.7062812
734.60 0.7060317
734.70 0.7057822
734.80 0.7055326
734.90 0.7052831
735.00 0.7050335
735.10 0.704784
735.20 0.7045344
735.30 0.7042849
735.40 0.7040354
735.50 0.7037858
735.60 0.7035363
735.70 0.7032867
735.80 0.7030372
735.90 0.7027876
736.00 0.7025381
736.10 0.7022886
736.20 0.702039
736.30 0.7017895
736.40 0.7015399
736.50 0.7012904
736.60 0.7010408
736.70 0.7007913
736.80 0.7005418
736.90 0.7002922
737.00 0.7000427
737.10 0.6997931
737.20 0.6995436
737.30 0.699294
737.40 0.6990445
737.50 0.698795
737.60 0.6985454
737.70 0.6982959
737.80 0.6980463
737.90 0.6977971
738.00 0.6975488
738.10 0.6973004
738.20 0.6970521
738.30 0.6968038
738.40 0.6965555
738.50 0.6963071
738.60 0.6960588
738.70 0.6958105
738.80 0.6955621
738.90 0.6953138
739.00 0.6950655
739.10 0.6948172
739.20 0.6945688
739.30 0.6943205
739.40 0.6940722
739.50 0.6938238
739.60 0.6935755
739.70 0.6933272
739.80 0.6930789
739.90 0.6928305
740.00 0.6925822
740.10 0.6923339
740.20 0.6920855
740.30 0.6918372
740.40 0.6915889
740.50 0.6913405
740.60 0.6910922
740.70 0.6908439
740.80 0.6905956
740.90 0.6903472
741.00 0.6900989
741.10 0.6898506
741.20 0.6896022
741.30 0.6893539
741.40 0.6891056
741.50 0.6888573
741.60 0.6886633
741.70 0.6886162
741.80 0.6885691
741.90 0.688522
742.00 0.688475
742.10 0.6884279
742.20 0.6883808
742.30 0.6883338
742.40 0.6882867
742.50 0.6882396
742.60 0.6881925
742.70 0.6881455
742.80 0.6880984
742.90 0.6880513
743.00 0.6880043
743.10 0.6879572
743.20 0.6879101
743.30 0.687863
743.40 0.687816
743.50 0.6877689
743.60 0.6877218
743.70 0.6876748
743.80 0.6876277
743.90 0.6875806
744.00 0.6875335
744.10 0.6874865
744.20 0.6874394
744.30 0.6873923
744.40 0.6873453
744.50 0.6872982
744.60 0.6872511
744.70 0.687204
744.80 0.687157
744.90 0.6871099
745.00 0.6870628
745.10 0.6870158
745.20 0.6869687
745.30 0.6869202
745.40 0.6868578
745.50 0.6867954
745.60 0.6867329
745.70 0.6866705
745.80 0.6866081
745.90 0.6865457
746.00 0.6864832
746.10 0.6864208
746.20 0.6863584
746.30 0.686296
746.40 0.6862335
746.50 0.6861711
746.60 0.6861087
746.70 0.6860463
746.80 0.6859838
746.90 0.6859214
747.00 0.685859
747.10 0.6857965
747.20 0.6857341
747.30 0.6856717
747.40 0.6856093
747.50 0.6855468
747.60 0.6854844
747.70 0.685422
747.80 0.6853596
747.90 0.6852971
748.00 0.6852347
748.10 0.6851723
748.20 0.6851099
748.30 0.6850474
748.40 0.684985
748.50 0.6849226
748.60 0.6848601
748.70 0.6847977
748.80 0.6847353
748.90 0.6846729
749.00 0.6846104
749.10 0.6845151
749.20 0.6844064
749.30 0.6842977
749.40 0.684189
749.50 0.6840803
749.60 0.6839715
749.70 0.6838628
749.80 0.6837541
749.90 0.6836454
750.00 0.6835366
750.10 0.6834252
750.20 0.6833138
750.30 0.6832024
750.40 0.683091
750.50 0.6829796
750.60 0.6828681
750.70 0.6827567
750.80 0.6826453
750.90 0.6825339
751.00 0.6824225
751.10 0.6823111
751.20 0.6821997
751.30 0.6820883
751.40 0.6819769
751.50 0.6818654
751.60 0.681754
751.70 0.6816426
751.80 0.6815312
751.90 0.6814198
752.00 0.6813084
752.10 0.681197
752.20 0.6810856
752.30 0.6809742
752.40 0.6808628
752.50 0.6807514
752.60 0.68064
752.70 0.6805286
752.80 0.6804133
752.90 0.6802754
753.00 0.6801375
753.10 0.6799996
753.20 0.6798617
753.30 0.6797238
753.40 0.6795859
753.50 0.6794481
753.60 0.6793102
753.70 0.6791723
753.80 0.6790344
753.90 0.6788965
754.00 0.6787587
754.10 0.6786208
754.20 0.6784829
754.30 0.678345
754.40 0.6782072
754.50 0.6780693
754.60 0.6779314
754.70 0.6777936
754.80 0.6776557
754.90 0.6775178
755.00 0.67738
755.10 0.6772421
755.20 0.6771042
755.30 0.6769664
755.40 0.6768285
755.50 0.6766906
755.60 0.6765528
755.70 0.6764149
755.80 0.6762771
755.90 0.6761392
756.00 0.6760014
756.10 0.6758635
756.20 0.6757256
756.30 0.6755878
756.40 0.6754499
756.50 0.6753121
756.60 0.6751622
756.70 0.6749942
756.80 0.6748263
756.90 0.6746583
757.00 0.6744904
757.10 0.6743224
757.20 0.6741545
757.30 0.6739865
757.40 0.6738186
757.50 0.6736506
757.60 0.6734827
757.70 0.6733147
757.80 0.6731468
757.90 0.6729788
758.00 0.6728109
758.10 0.6726429
758.20 0.672475
758.30 0.6723071
758.40 0.6721391
758.50 0.6719712
758.60 0.6718033
758.70 0.6716353
758.80 0.6714674
758.90 0.6712995
759.00 0.6711315
759.10 0.6709636
759.20 0.6707957
759.30 0.6706278
759.40 0.6704598
759.50 0.6702919
759.60 0.670124
759.70 0.6699561
759.80 0.6697882
759.90 0.6696202
760.00 0.6694523
760.10 0.6692844
760.20 0.6691165
760.30 0.6689486
760.40 0.6687685
760.50 0.6685747
760.60 0.6683809
760.70 0.6681871
760.80 0.6679933
760.90 0.6677995
761.00 0.6676057
761.10 0.6674119
761.20 0.6672181
761.30 0.6670243
761.40 0.6668305
761.50 0.6666367
761.60 0.6664429
761.70 0.6662491
761.80 0.6660554
761.90 0.6658616
762.00 0.6656678
762.10 0.665474
762.20 0.6652802
762.30 0.6650864
762.40 0.6648927
762.50 0.6646989
762.60 0.6645051
762.70 0.6643113
762.80 0.6641176
762.90 0.6639238
763.00 0.66373
763.10 0.6635363
763.20 0.6633425
763.30 0.6631487
763.40 0.662955
763.50 0.6627612
763.60 0.6625675
763.70 0.6623737
763.80 0.6621799
763.90 0.6619862
764.00 0.6617924
764.10 0.6615987
764.20 0.6614053
764.30 0.6612125
764.40 0.6610197
764.50 0.6608269
764.60 0.6606341
764.70 0.6604413
764.80 0.6602485
764.90 0.6600557
765.00 0.6598629
765.10 0.6596701
765.20 0.6594773
765.30 0.6592845
765.40 0.6590917
765.50 0.658899
765.60 0.6587062
765.70 0.6585134
765.80 0.6583206
765.90 0.6581278
766.00 0.6579351
766.10 0.6577423
766.20 0.6575495
766.30 0.6573568
766.40 0.657164
766.50 0.6569712
766.60 0.6567784
766.70 0.6565857
766.80 0.6563929
766.90 0.6562002
767.00 0.6560074
767.10 0.6558146
767.20 0.6556219
767.30 0.6554291
767.40 0.6552364
767.50 0.6550436
767.60 0.6548509
767.70 0.6546581
767.80 0.6544654
767.90 0.6542726
768.00 0.654081
768.10 0.6539421
768.20 0.6538033
768.30 0.6536645
768.40 0.6535257
768.50 0.6533869
768.60 0.653248
768.70 0.6531092
768.80 0.6529704
768.90 0.6528316
769.00 0.6526928
769.10 0.652554
769.20 0.6524152
769.30 0.6522763
769.40 0.6521375
769.50 0.6519987
769.60 0.6518599
769.70 0.6517211
769.80 0.6515823
769.90 0.6514435
770.00 0.6513047
770.10 0.6511659
770.20 0.6510271
770.30 0.6508883
770.40 0.6507495
770.50 0.6506107
770.60 0.6504719
770.70 0.6503331
770.80 0.6501943
770.90 0.6500555
771.00 0.6499167
771.10 0.6497779
771.20 0.6496392
771.30 0.6495004
771.40 0.6493616
771.50 0.6492228
771.60 0.649084
771.70 0.6489452
771.80 0.6488064
771.90 0.6486911
772.00 0.6485981
772.10 0.6485052
772.20 0.6484123
772.30 0.6483194
772.40 0.6482265
772.50 0.6481336
772.60 0.6480407
772.70 0.6479478
772.80 0.6478549
772.90 0.647762
773.00 0.6476691
773.10 0.6475762
773.20 0.6474833
773.30 0.6473904
773.40 0.6472975
773.50 0.6472047
773.60 0.6471118
773.70 0.6470189
773.80 0.646926
773.90 0.6468331
774.00 0.6467402
774.10 0.6466473
774.20 0.6465544
774.30 0.6464615
774.40 0.6463686
774.50 0.6462757
774.60 0.6461829
774.70 0.64609
774.80 0.6459971
774.90 0.6459042
775.00 0.6458113
775.10 0.6457184
775.20 0.6456256
775.30 0.6455327
775.40 0.6454398
775.50 0.6453469
775.60 0.645254
775.70 0.6451612
775.80 0.6450656
775.90 0.6449694
776.00 0.6448733
776.10 0.6447771
776.20 0.6446809
776.30 0.6445847
776.40 0.6444886
776.50 0.6443924
776.60 0.6442962
776.70 0.6442
776.80 0.6441038
776.90 0.6440077
777.00 0.6439115
777.10 0.6438153
777.20 0.6437192
777.30 0.643623
777.40 0.6435268
777.50 0.6434306
777.60 0.6433345
777.70 0.6432383
777.80 0.6431421
777.90 0.643046
778.00 0.6429498
778.10 0.6428536
778.20 0.6427575
778.30 0.6426613
778.40 0.6425651
778.50 0.642469
778.60 0.6423728
778.70 0.6422767
778.80 0.6421805
778.90 0.6420843
779.00 0.6419882
779.10 0.641892
779.20 0.6417959
779.30 0.6416997
779.40 0.6416036
779.50 0.6415074
779.60 0.6414112
779.70 0.6412652
779.80 0.6411136
779.90 0.640962
780.00 0.6408104
780.10 0.6406588
780.20 0.6405072
780.30 0.6403556
780.40 0.640204
780.50 0.6400525
780.60 0.6399009
780.70 0.6397493
780.80 0.6395977
780.90 0.6394461
781.00 0.6392945
781.10 0.639143
781.20 0.6389914
781.30 0.6388398
781.40 0.6386882
781.50 0.6385366
781.60 0.6383851
781.70 0.6382335
781.80 0.6380819
781.90 0.6379303
782.00 0.6377788
782.10 0.6376272
782.20 0.6374756
782.30 0.6373241
782.40 0.6371725
782.50 0.6370209
782.60 0.6368694
782.70 0.6367178
782.80 0.6365663
782.90 0.6364147
783.00 0.6362631
783.10 0.6361116
783.20 0.63596
783.30 0.6358085
783.40 0.6356569
783.50 0.6355054
783.60 0.6353454
783.70 0.6351835
783.80 0.6350216
783.90 0.6348597
784.00 0.6346978
784.10 0.6345359
784.20 0.634374
784.30 0.634212
784.40 0.6340501
784.50 0.6338882
784.60 0.6337263
784.70 0.6335644
784.80 0.6334025
784.90 0.6332406
785.00 0.6330787
785.10 0.6329168
785.20 0.632755
785.30 0.6325931
785.40 0.6324312
785.50 0.6322693
785.60 0.6321074
785.70 0.6319455
785.80 0.6317836
785.90 0.6316217
786.00 0.6314598
786.10 0.631298
786.20 0.6311361
786.30 0.6309742
786.40 0.6308123
786.50 0.6306504
786.60 0.6304886
786.70 0.6303267
786.80 0.6301648
786.90 0.6300029
787.00 0.6298411
787.10 0.6296792
787.20 0.6295173
787.30 0.6293555
787.40 0.6291936
787.50 0.6289938
787.60 0.628759
787.70 0.6285242
787.80 0.6282894
787.90 0.6280546
788.00 0.6278198
788.10 0.627585
788.20 0.6273502
788.30 0.6271154
788.40 0.6268806
788.50 0.6266458
788.60 0.626411
788.70 0.6261762
788.80 0.6259414
788.90 0.6257066
789.00 0.6254718
789.10 0.625237
789.20 0.6250023
789.30 0.6247675
789.40 0.6245327
789.50 0.6242979
789.60 0.6240632
789.70 0.6238284
789.80 0.6235936
789.90 0.6233588
790.00 0.6231241
790.10 0.6228893
790.20 0.6226546
790.30 0.6224198
790.40 0.622185
790.50 0.6219503
790.60 0.6217155
790.70 0.6214808
790.80 0.621246
790.90 0.6210113
791.00 0.6207765
791.10 0.6205418
791.20 0.620307
791.30 0.6200723
791.40 0.6198394
791.50 0.6196682
791.60 0.619497
791.70 0.6193257
791.80 0.6191545
791.90 0.6189832
792.00 0.618812
792.10 0.6186408
792.20 0.6184695
792.30 0.6182983
792.40 0.618127
792.50 0.6179558
792.60 0.6177846
792.70 0.6176134
792.80 0.6174421
792.90 0.6172709
793.00 0.6170997
793.10 0.6169284
793.20 0.6167572
793.30 0.616586
793.40 0.6164148
793.50 0.6162436
793.60 0.6160723
793.70 0.6159011
793.80 0.6157299
793.90 0.6155587
794.00 0.6153875
794.10 0.6152163
794.20 0.6150451
794.30 0.6148739
794.40 0.6147027
794.50 0.6145314
794.60 0.6143602
794.70 0.614189
794.80 0.6140178
794.90 0.6138466
795.00 0.6136754
795.10 0.6135042
795.20 0.613333
795.30 0.6131619
795.40 0.6130267
795.50 0.6129586
795.60 0.6128905
795.70 0.6128224
795.80 0.6127543
795.90 0.6126862
796.00 0.6126181
796.10 0.6125499
796.20 0.6124818
796.30 0.6124137
796.40 0.6123456
796.50 0.6122775
796.60 0.6122094
796.70 0.6121413
796.80 0.6120732
796.90 0.6120051
797.00 0.611937
797.10 0.6118688
797.20 0.6118007
797.30 0.6117326
797.40 0.6116645
797.50 0.6115964
797.60 0.6115283
797.70 0.6114602
797.80 0.6113921
797.90 0.611324
798.00 0.6112559
798.10 0.6111878
798.20 0.6111197
798.30 0.6110516
798.40 0.6109835
798.50 0.6109154
798.60 0.6108473
798.70 0.6107792
798.80 0.6107111
798.90 0.610643
799.00 0.6105749
799.10 0.6105068
799.20 0.6104387
799.30 0.6103706
799.40 0.6102659
799.50 0.6101182
799.60 0.6099706
799.70 0.6098229
799.80 0.6096752
799.90 0.6095275
800.00 0.6093798
800.10 0.609231
800.20 0.6090821
800.30 0.6089332
800.40 0.6087843
800.50 0.6086355
800.60 0.6084866
800.70 0.6083377
800.80 0.6081889
800.90 0.60804
801.00 0.6078911
801.10 0.6077423
801.20 0.6075934
801.30 0.6074446
801.40 0.6072957
801.50 0.6071469
801.60 0.606998
801.70 0.6068492
801.80 0.6067003
801.90 0.6065515
802.00 0.6064026
802.10 0.6062538
802.20 0.6061049
802.30 0.6059561
802.40 0.6058073
802.50 0.6056584
802.60 0.6055096
802.70 0.6053607
802.80 0.6052119
802.90 0.6050631
803.00 0.6049143
803.10 0.6047654
803.20 0.6046166
803.30 0.6044678
803.40 0.6043137
803.50 0.6041512
803.60 0.6039886
803.70 0.6038261
803.80 0.6036636
803.90 0.603501
804.00 0.6033385
804.10 0.6031759
804.20 0.6030134
804.30 0.6028509
804.40 0.6026883
804.50 0.6025258
804.60 0.6023633
804.70 0.6022007
804.80 0.6020382
804.90 0.6018757
805.00 0.6017132
805.10 0.6015507
805.20 0.6013881
805.30 0.6012256
805.40 0.6010631
805.50 0.6009006
805.60 0.6007381
805.70 0.6005756
805.80 0.6004131
805.90 0.6002506
806.00 0.6000881
806.10 0.5999256
806.20 0.5997631
806.30 0.5996006
806.40 0.5994381
806.50 0.5992756
806.60 0.5991131
806.70 0.5989506
806.80 0.5987881
806.90 0.5986256
807.00 0.5984631
807.10 0.5983007
807.20 0.5981382
807.30 0.5979757
807.40 0.597818
807.50 0.597703
807.60 0.5975881
807.70 0.5974732
807.80 0.5973582
807.90 0.5972433
808.00 0.5971284
808.10 0.5970134
808.20 0.5968985
808.30 0.5967836
808.40 0.5966687
808.50 0.5965537
808.60 0.5964388
808.70 0.5963239
808.80 0.596209
808.90 0.5960941
809.00 0.5959791
809.10 0.5958642
809.20 0.5957493
809.30 0.5956344
809.40 0.5955195
809.50 0.5954046
809.60 0.5952897
809.70 0.5951748
809.80 0.5950598
809.90 0.5949449
810.00 0.59483
810.10 0.5947151
810.20 0.5946002
810.30 0.5944853
810.40 0.5943704
810.50 0.5942555
810.60 0.5941406
810.70 0.5940257
810.80 0.5939108
810.90 0.593796
811.00 0.5936811
811.10 0.5935662
811.20 0.5934513
811.30 0.5933364
811.40 0.5932215
811.50 0.5930764
811.60 0.5929121
811.70 0.5927477
811.80 0.5925833
811.90 0.5924189
812.00 0.5922545
812.10 0.5920902
812.20 0.5919258
812.30 0.5917614
812.40 0.5915971
812.50 0.5914327
812.60 0.5912683
812.70 0.591104
812.80 0.5909396
812.90 0.5907753
813.00 0.5906109
813.10 0.5904465
813.20 0.5902822
813.30 0.5901178
813.40 0.5899535
813.50 0.5897892
813.60 0.5896248
813.70 0.5894605
813.80 0.5892961
813.90 0.5891318
814.00 0.5889675
814.10 0.5888031
814.20 0.5886388
814.30 0.5884745
814.40 0.5883101
814.50 0.5881458
814.60 0.5879815
814.70 0.5878172
814.80 0.5876528
814.90 0.5874885
815.00 0.5873242
815.10 0.5871599
815.20 0.5869956
815.30 0.5868313
815.40 0.5866669
815.50 0.5865026
815.60 0.586254
815.70 0.585998
815.80 0.585742
815.90 0.585486
816.00 0.5852301
816.10 0.5849741
816.20 0.5847181
816.30 0.5844622
816.40 0.5842062
816.50 0.5839502
816.60 0.5836943
816.70 0.5834383
816.80 0.5831824
816.90 0.5829264
817.00 0.5826705
817.10 0.5824146
817.20 0.5821586
817.30 0.5819027
817.40 0.5816467
817.50 0.5813908
817.60 0.5811349
817.70 0.580879
817.80 0.580623
817.90 0.5803671
818.00 0.5801112
818.10 0.5798553
818.20 0.5795994
818.30 0.5793435
818.40 0.5790876
818.50 0.5788317
818.60 0.5785758
818.70 0.5783199
818.80 0.578064
818.90 0.5778081
819.00 0.5775522
819.10 0.5772964
819.20 0.5770405
819.30 0.5767846
819.40 0.5765287
819.50 0.5762729
819.60 0.5760215
819.70 0.5759155
819.80 0.5758095
819.90 0.5757035
820.00 0.5755975
820.10 0.5754915
820.20 0.5753855
820.30 0.5752795
820.40 0.5751735
820.50 0.5750675
820.60 0.5749615
820.70 0.5748555
820.80 0.5747495
820.90 0.5746435
821.00 0.5745376
821.10 0.5744316
821.20 0.5743256
821.30 0.5742196
821.40 0.5741136
821.50 0.5740076
821.60 0.5739017
821.70 0.5737957
821.80 0.5736897
821.90 0.5735837
822.00 0.5734778
822.10 0.5733718
822.20 0.5732658
822.30 0.5731598
822.40 0.5730539
822.50 0.5729479
822.60 0.5728419
822.70 0.572736
822.80 0.57263
822.90 0.572524
823.00 0.5724181
823.10 0.5723121
823.20 0.5722061
823.30 0.5721002
823.40 0.5719942
823.50 0.5718883
823.60 0.5717823
823.70 0.5716764
823.80 0.5716069
823.90 0.5715402
824.00 0.5714734
824.10 0.5714067
824.20 0.57134
824.30 0.5712733
824.40 0.5712065
824.50 0.5711398
824.60 0.5710731
824.70 0.5710064
824.80 0.5709396
824.90 0.5708729
825.00 0.5708062
825.10 0.5707395
825.20 0.5706728
825.30 0.5706061
825.40 0.5705393
825.50 0.5704726
825.60 0.5704059
825.70 0.5703392
825.80 0.5702725
825.90 0.5702058
826.00 0.5701391
826.10 0.5700724
826.20 0.5700056
826.30 0.5699389
826.40 0.5698722
826.50 0.5698055
826.60 0.5697388
826.70 0.5696721
826.80 0.5696054
826.90 0.5695387
827.00 0.569472
827.10 0.5694053
827.20 0.5693386
827.30 0.5692719
827.40 0.5692052
827.50 0.5691385
827.60 0.5690718
827.70 0.5690051
827.80 0.5689384
827.90 0.5688003
828.00 0.5686183
828.10 0.5684364
828.20 0.5682545
828.30 0.5680726
828.40 0.5678907
828.50 0.5677088
828.60 0.5675269
828.70 0.567345
828.80 0.5671631
828.90 0.5669812
829.00 0.5667993
829.10 0.5666174
829.20 0.5664355
829.30 0.5662536
829.40 0.5660718
829.50 0.5658899
829.60 0.565708
829.70 0.5655261
829.80 0.5653442
829.90 0.5651624
830.00 0.5649805
830.10 0.5647986
830.20 0.5646168
830.30 0.5644349
830.40 0.564253
830.50 0.5640712
830.60 0.5638893
830.70 0.5637074
830.80 0.5635256
830.90 0.5633437
831.00 0.5631619
831.10 0.56298
831.20 0.5627982
831.30 0.5626163
831.40 0.5624345
831.50 0.5622527
831.60 0.5620708
831.70 0.561889
831.80 0.5617072
831.90 0.5615253
832.00 0.5613486
832.10 0.5612129
832.20 0.5610773
832.30 0.5609416
832.40 0.5608059
832.50 0.5606703
832.60 0.5605346
832.70 0.560399
832.80 0.5602633
832.90 0.5601277
833.00 0.559992
833.10 0.5598564
833.20 0.5597208
833.30 0.5595851
833.40 0.5594495
833.50 0.5593138
833.60 0.5591782
833.70 0.5590426
833.80 0.5589069
833.90 0.5587713
834.00 0.5586357
834.10 0.5585
834.20 0.5583644
834.30 0.5582288
834.40 0.5580932
834.50 0.5579575
834.60 0.5578219
834.70 0.5576863
834.80 0.5575507
834.90 0.5574151
835.00 0.5572795
835.10 0.5571438
835.20 0.5570082
835.30 0.5568726
835.40 0.556737
835.50 0.5566014
835.60 0.5564658
835.70 0.5563302
835.80 0.5561946
835.90 0.556059
836.00 0.5559234
836.10 0.5557878
836.20 0.5556592
836.30 0.5555416
836.40 0.555424
836.50 0.5553064
836.60 0.5551888
836.70 0.5550712
836.80 0.5549536
836.90 0.554836
837.00 0.5547184
837.10 0.5546008
837.20 0.5544832
837.30 0.5543656
837.40 0.554248
837.50 0.5541304
837.60 0.5540128
837.70 0.5538952
837.80 0.5537776
837.90 0.55366
838.00 0.5535424
838.10 0.5534248
838.20 0.5533072
838.30 0.5531897
838.40 0.5530721
838.50 0.5529545
838.60 0.5528369
838.70 0.5527193
838.80 0.5526018
838.90 0.5524842
839.00 0.5523666
839.10 0.552249
839.20 0.5521315
839.30 0.5520139
839.40 0.5518963
839.50 0.5517788
839.60 0.5516612
839.70 0.5515436
839.80 0.5514261
839.90 0.5513085
840.00 0.5511909
840.10 0.5510734
840.20 0.5509558
840.30 0.5508383
840.40 0.5506877
840.50 0.5504983
840.60 0.550309
840.70 0.5501196
840.80 0.5499303
840.90 0.549741
841.00 0.5495516
841.10 0.5493623
841.20 0.549173
841.30 0.5489836
841.40 0.5487943
841.50 0.548605
841.60 0.5484157
841.70 0.5482263
841.80 0.548037
841.90 0.5478477
842.00 0.5476584
842.10 0.5474691
842.20 0.5472798
842.30 0.5470905
842.40 0.5469012
842.50 0.5467118
842.60 0.5465225
842.70 0.5463332
842.80 0.546144
842.90 0.5459547
843.00 0.5457654
843.10 0.5455761
843.20 0.5453868
843.30 0.5451975
843.40 0.5450082
843.50 0.5448189
843.60 0.5446297
843.70 0.5444404
843.80 0.5442511
843.90 0.5440618
844.00 0.5438726
844.10 0.5436833
844.20 0.543494
844.30 0.5433048
844.40 0.5431155
844.50 0.5429263
844.60 0.5426792
844.70 0.5423091
844.80 0.5419391
844.90 0.5415691
845.00 0.5411991
845.10 0.5408292
845.20 0.5404592
845.30 0.5400892
845.40 0.5397192
845.50 0.5393492
845.60 0.5389793
845.70 0.5386093
845.80 0.5382393
845.90 0.5378694
846.00 0.5374994
846.10 0.5371295
846.20 0.5367595
846.30 0.5363896
846.40 0.5360197
846.50 0.5356497
846.60 0.5352798
846.70 0.5349099
846.80 0.53454
846.90 0.53417
847.00 0.5338001
847.10 0.5334302
847.20 0.5330603
847.30 0.5326904
847.40 0.5323205
847.50 0.5319507
847.60 0.5315808
847.70 0.5312109
847.80 0.530841
847.90 0.5304712
848.00 0.5301013
848.10 0.5297314
848.20 0.5293616
848.30 0.5289917
848.40 0.5286219
848.50 0.528252
848.60 0.5278822
848.70 0.5275124
848.80 0.5271425
848.90 0.5267579
849.00 0.5263729
849.10 0.5259878
849.20 0.5256027
849.30 0.5252177
849.40 0.5248326
849.50 0.5244476
849.60 0.5240626
849.70 0.5236775
849.80 0.5232925
849.90 0.5229075
850.00 0.5225225
850.10 0.5221364
850.20 0.5217504
850.30 0.5213644
850.40 0.5209783
850.50 0.5205923
850.60 0.5202063
850.70 0.5198203
850.80 0.5194343
850.90 0.5190483
851.00 0.5186623
851.10 0.5182763
851.20 0.5178903
851.30 0.5175043
851.40 0.5171184
851.50 0.5167324
851.60 0.5163464
851.70 0.5159605
851.80 0.5155745
851.90 0.5151886
852.00 0.5148027
852.10 0.5144167
852.20 0.5140308
852.30 0.5136449
852.40 0.513259
852.50 0.5128731
852.60 0.5124872
852.70 0.5121013
852.80 0.5117154
852.90 0.5113296
853.00 0.5109437
853.10 0.5107408
853.20 0.5108012
853.30 0.5108616
853.40 0.5109219
853.50 0.5109823
853.60 0.5110427
853.70 0.5111031
853.80 0.5111635
853.90 0.5112239
854.00 0.5112842
854.10 0.5113446
854.20 0.511405
854.30 0.5114654
854.40 0.5115257
854.50 0.5115861
854.60 0.5116465
854.70 0.5117069
854.80 0.5117672
854.90 0.5118276
855.00 0.511888
855.10 0.5119483
855.20 0.5120087
855.30 0.5120691
855.40 0.5121294
855.50 0.5121898
855.60 0.5122502
855.70 0.5123105
855.80 0.5123709
855.90 0.5124313
856.00 0.5124916
856.10 0.512552
856.20 0.5126123
856.30 0.5126727
856.40 0.512733
856.50 0.5127934
856.60 0.5128537
856.70 0.5129141
856.80 0.5129744
856.90 0.5130348
857.00 0.5130951
857.10 0.5131555
857.20 0.5132158
857.30 0.5132762
857.40 0.5133193
857.50 0.5133524
857.60 0.5133854
857.70 0.5134184
857.80 0.5134515
857.90 0.5134845
858.00 0.5135176
858.10 0.5135506
858.20 0.5135836
858.30 0.5136167
858.40 0.5136497
858.50 0.5136827
858.60 0.5137158
858.70 0.5137488
858.80 0.5137818
858.90 0.5138149
859.00 0.5138479
859.10 0.5138809
859.20 0.5139139
859.30 0.513947
859.40 0.51398
859.50 0.514013
859.60 0.5140461
859.70 0.5140791
859.80 0.5141121
859.90 0.5141451
860.00 0.5141782
860.10 0.5142112
860.20 0.5142442
860.30 0.5142772
860.40 0.5143103
860.50 0.5143433
860.60 0.5143763
860.70 0.5144093
860.80 0.5144423
860.90 0.5144754
861.00 0.5145084
861.10 0.5145414
861.20 0.5145744
861.30 0.5146074
861.40 0.5146404
861.50 0.5146735
861.60 0.5147065
861.70 0.5145268
861.80 0.5142274
861.90 0.513928
862.00 0.5136287
862.10 0.5133293
862.20 0.51303
862.30 0.5127307
862.40 0.5124313
862.50 0.512132
862.60 0.5118327
862.70 0.5115333
862.80 0.511234
862.90 0.5109347
863.00 0.5106354
863.10 0.5103361
863.20 0.5100368
863.30 0.5097375
863.40 0.5094382
863.50 0.5091389
863.60 0.5088397
863.70 0.5085404
863.80 0.5082411
863.90 0.5079419
864.00 0.5076426
864.10 0.5073433
864.20 0.5070441
864.30 0.5067448
864.40 0.5064456
864.50 0.5061464
864.60 0.5058471
864.70 0.5055479
864.80 0.5052487
864.90 0.5049495
865.00 0.5046502
865.10 0.504351
865.20 0.5040518
865.30 0.5037526
865.40 0.5034534
865.50 0.5031543
865.60 0.5028551
865.70 0.5025559
865.80 0.5022567
865.90 0.5019575
866.00 0.5017882
866.10 0.5017909
866.20 0.5017936
866.30 0.5017963
866.40 0.5017989
866.50 0.5018016
866.60 0.5018043
866.70 0.501807
866.80 0.5018097
866.90 0.5018124
867.00 0.5018151
867.10 0.5018178
867.20 0.5018205
867.30 0.5018232
867.40 0.5018259
867.50 0.5018286
867.60 0.5018312
867.70 0.5018339
867.80 0.5018366
867.90 0.5018393
868.00 0.501842
868.10 0.5018447
868.20 0.5018474
868.30 0.5018501
868.40 0.5018528
868.50 0.5018555
868.60 0.5018581
868.70 0.5018608
868.80 0.5018635
868.90 0.5018662
869.00 0.5018689
869.10 0.5018716
869.20 0.5018743
869.30 0.501877
869.40 0.5018797
869.50 0.5018824
869.60 0.501885
869.70 0.5018877
869.80 0.5018904
869.90 0.5018931
870.00 0.5018958
870.10 0.5018985
870.20 0.5019012
870.30 0.5019045
870.40 0.5019736
870.50 0.5020426
870.60 0.5021117
870.70 0.5021807
870.80 0.5022498
870.90 0.5023188
871.00 0.5023879
871.10 0.5024569
871.20 0.502526
871.30 0.502595
871.40 0.5026641
871.50 0.5027331
871.60 0.5028022
871.70 0.5028712
871.80 0.5029403
871.90 0.5030093
872.00 0.5030783
872.10 0.5031474
872.20 0.5032164
872.30 0.5032854
872.40 0.5033545
872.50 0.5034235
872.60 0.5034925
872.70 0.5035616
872.80 0.5036306
872.90 0.5036996
873.00 0.5037687
873.10 0.5038377
873.20 0.5039067
873.30 0.5039757
873.40 0.5040447
873.50 0.5041138
873.60 0.5041828
873.70 0.5042518
873.80 0.5043208
873.90 0.5043898
874.00 0.5044589
874.10 0.5045279
874.20 0.5045969
874.30 0.5046659
874.40 0.5047349
874.50 0.5048039
874.60 0.5048729
874.70 0.5048783
874.80 0.5047752
874.90 0.5046722
875.00 0.5045691
875.10 0.504466
875.20 0.504363
875.30 0.5042599
875.40 0.5041569
875.50 0.5040538
875.60 0.5039508
875.70 0.5038478
875.80 0.5037447
875.90 0.5036417
876.00 0.5035386
876.10 0.5034356
876.20 0.5033326
876.30 0.5032295
876.40 0.5031265
876.50 0.5030235
876.60 0.5029204
876.70 0.5028174
876.80 0.5027144
876.90 0.5026114
877.00 0.5025083
877.10 0.5024053
877.20 0.5023023
877.30 0.5021993
877.40 0.5020963
877.50 0.5019932
877.60 0.5018902
877.70 0.5017872
877.80 0.5016842
877.90 0.5015812
878.00 0.5014782
878.10 0.5013752
878.20 0.5012722
878.30 0.5011692
878.40 0.5010662
878.50 0.5009632
878.60 0.5008602
878.70 0.5007572
878.80 0.5006542
878.90 0.5005512
879.00 0.5004482
879.10 0.5003356
879.20 0.5002134
879.30 0.5000911
879.40 0.4999689
879.50 0.4998467
879.60 0.4997245
879.70 0.4996023
879.80 0.4994801
879.90 0.4993578
880.00 0.4992356
880.10 0.4991134
880.20 0.4989912
880.30 0.498869
880.40 0.4987468
880.50 0.4986246
880.60 0.4985024
880.70 0.4983802
880.80 0.498258
880.90 0.4981358
881.00 0.4980136
881.10 0.4978915
881.20 0.4977693
881.30 0.4976471
881.40 0.4975249
881.50 0.4974027
881.60 0.4972805
881.70 0.4971584
881.80 0.4970362
881.90 0.496914
882.00 0.4967918
882.10 0.4966697
882.20 0.4965475
882.30 0.4964253
882.40 0.4963032
882.50 0.496181
882.60 0.4960588
882.70 0.4959367
882.80 0.4958145
882.90 0.4956924
883.00 0.4955702
883.10 0.4954481
883.20 0.4953259
883.30 0.4952038
883.40 0.4950816
883.50 0.4949858
883.60 0.4949263
883.70 0.4948668
883.80 0.4948074
883.90 0.4947479
884.00 0.4946884
884.10 0.4946289
884.20 0.4945695
884.30 0.49451
884.40 0.4944505
884.50 0.4943911
884.60 0.4943316
884.70 0.4942721
884.80 0.4942127
884.90 0.4941532
885.00 0.4940937
885.10 0.4940343
885.20 0.4939748
885.30 0.4939153
885.40 0.4938559
885.50 0.4937964
885.60 0.4937369
885.70 0.4936775
885.80 0.493618
885.90 0.4935586
886.00 0.4934991
886.10 0.4934397
886.20 0.4933802
886.30 0.4933207
886.40 0.4932613
886.50 0.4932018
886.60 0.4931424
886.70 0.4930829
886.80 0.4930235
886.90 0.492964
887.00 0.4929046
887.10 0.4928451
887.20 0.4927857
887.30 0.4927263
887.40 0.4926668
887.50 0.4926074
887.60 0.4925479
887.70 0.4924885
887.80 0.492429
887.90 0.4923692
888.00 0.4923068
888.10 0.4922444
888.20 0.492182
888.30 0.4921196
888.40 0.4920572
888.50 0.4919948
888.60 0.4919324
888.70 0.49187
888.80 0.4918075
888.90 0.4917451
889.00 0.4916827
889.10 0.4916203
889.20 0.4915579
889.30 0.4914955
889.40 0.4914331
889.50 0.4913707
889.60 0.4913083
889.70 0.4912459
889.80 0.4911835
889.90 0.4911211
890.00 0.4910587
890.10 0.4909963
890.20 0.4909339
890.30 0.4908715
890.40 0.4908092
890.50 0.4907468
890.60 0.4906844
890.70 0.490622
890.80 0.4905596
890.90 0.4904972
891.00 0.4904348
891.10 0.4903724
891.20 0.4903101
891.30 0.4902477
891.40 0.4901853
891.50 0.4901229
891.60 0.4900605
891.70 0.4899981
891.80 0.4899358
891.90 0.4898734
892.00 0.489811
892.10 0.4897486
892.20 0.4896863
892.30 0.4896239
892.40 0.4895132
892.50 0.4893703
892.60 0.4892275
892.70 0.4890846
892.80 0.4889417
892.90 0.4887989
893.00 0.488656
893.10 0.4885131
893.20 0.4883703
893.30 0.4882274
893.40 0.4880846
893.50 0.4879417
893.60 0.4877989
893.70 0.487656
893.80 0.4875132
893.90 0.4873703
894.00 0.4872275
894.10 0.4870846
894.20 0.4869418
894.30 0.486799
894.40 0.4866561
894.50 0.4865133
894.60 0.4863705
894.70 0.4862277
894.80 0.4860848
894.90 0.485942
895.00 0.4857992
895.10 0.4856564
895.20 0.4855136
895.30 0.4853708
895.40 0.4852279
895.50 0.4850851
895.60 0.4849423
895.70 0.4847995
895.80 0.4846567
895.90 0.4845139
896.00 0.4843711
896.10 0.4842283
896.20 0.4840855
896.30 0.4839428
896.40 0.4838
896.50 0.4836572
896.60 0.4835144
896.70 0.4833716
896.80 0.4832288
896.90 0.4830675
897.00 0.4829029
897.10 0.4827383
897.20 0.4825737
897.30 0.4824091
897.40 0.4822445
897.50 0.4820799
897.60 0.4819154
897.70 0.4817508
897.80 0.4815862
897.90 0.4814216
898.00 0.481257
898.10 0.4810925
898.20 0.4809279
898.30 0.4807633
898.40 0.4805988
898.50 0.4804342
898.60 0.4802696
898.70 0.4801051
898.80 0.4799405
898.90 0.479776
899.00 0.4796114
899.10 0.4794469
899.20 0.4792823
899.30 0.4791178
899.40 0.4789533
899.50 0.4787887
899.60 0.4786242
899.70 0.4784597
899.80 0.4782951
899.90 0.4781306
900.00 0.4779661
900.10 0.4778035
900.20 0.4776408
900.30 0.4774782
900.40 0.4773156
900.50 0.477153
900.60 0.4769904
900.70 0.4768278
900.80 0.4766652
900.90 0.4765025
901.00 0.4763399
901.10 0.4761773
901.20 0.4760147
901.30 0.4758521
901.40 0.4757493
901.50 0.4756547
901.60 0.47556
901.70 0.4754654
901.80 0.4753707
901.90 0.4752761
902.00 0.4751814
902.10 0.4750868
902.20 0.4749921
902.30 0.4748975
902.40 0.4748028
902.50 0.4747082
902.60 0.4746136
902.70 0.4745189
902.80 0.4744243
902.90 0.4743296
903.00 0.474235
903.10 0.4741404
903.20 0.4740457
903.30 0.4739511
903.40 0.4738564
903.50 0.4737618
903.60 0.4736672
903.70 0.4735725
903.80 0.4734779
903.90 0.4733833
904.00 0.4732886
904.10 0.473194
904.20 0.4730994
904.30 0.4730047
904.40 0.4729101
904.50 0.4728155
904.60 0.4727209
904.70 0.4726262
904.80 0.4725316
904.90 0.472437
905.00 0.4723424
905.10 0.4722477
905.20 0.4721531
905.30 0.4720585
905.40 0.4719639
905.50 0.4718692
905.60 0.4717746
905.70 0.47168
905.80 0.4715854
905.90 0.4714933
906.00 0.4714024
906.10 0.4713114
906.20 0.4712205
906.30 0.4711295
906.40 0.4710386
906.50 0.4709476
906.60 0.4708567
906.70 0.4707658
906.80 0.4706748
906.90 0.4705839
907.00 0.4704929
907.10 0.470402
907.20 0.4703111
907.30 0.4702201
907.40 0.4701292
907.50 0.4700382
907.60 0.4699473
907.70 0.4698564
907.80 0.4697654
907.90 0.4696745
908.00 0.4695836
908.10 0.4694926
908.20 0.4694017
908.30 0.4693108
908.40 0.4692199
908.50 0.4691289
908.60 0.469038
908.70 0.4689471
908.80 0.4688561
908.90 0.4687652
909.00 0.4686743
909.10 0.4685834
909.20 0.4684924
909.30 0.4684015
909.40 0.4683106
909.50 0.4682197
909.60 0.4681288
909.70 0.4680378
909.80 0.4679469
909.90 0.467856
910.00 0.4677651
910.10 0.4676742
910.20 0.4675832
910.30 0.4674923
910.40 0.4674056
910.50 0.467331
910.60 0.4672563
910.70 0.4671817
910.80 0.467107
910.90 0.4670323
911.00 0.4669577
911.10 0.466883
911.20 0.4668084
911.30 0.4667337
911.40 0.4666591
911.50 0.4665844
911.60 0.4665098
911.70 0.4664351
911.80 0.4663605
911.90 0.4662858
912.00 0.4662112
912.10 0.4661365
912.20 0.4660619
912.30 0.4659872
912.40 0.4659126
912.50 0.4658379
912.60 0.4657633
912.70 0.4656886
912.80 0.465614
912.90 0.4655393
913.00 0.4654647
913.10 0.46539
913.20 0.4653154
913.30 0.4652407
913.40 0.4651661
913.50 0.4650915
913.60 0.4650168
913.70 0.4649422
913.80 0.4648675
913.90 0.4647929
914.00 0.4647183
914.10 0.4646436
914.20 0.464569
914.30 0.4644943
914.40 0.4644197
914.50 0.4643451
914.60 0.4642704
914.70 0.4641958
914.80 0.4641212
914.90 0.4640465
915.00 0.4639087
915.10 0.4637306
915.20 0.4635524
915.30 0.4633742
915.40 0.463196
915.50 0.4630179
915.60 0.4628397
915.70 0.4626615
915.80 0.4624834
915.90 0.4623052
916.00 0.462127
916.10 0.4619489
916.20 0.4617707
916.30 0.4615926
916.40 0.4614144
916.50 0.4612363
916.60 0.4610581
916.70 0.4608799
916.80 0.4607018
916.90 0.4605236
917.00 0.4603455
917.10 0.4601674
917.20 0.4599892
917.30 0.4598111
917.40 0.4596329
917.50 0.4594548
917.60 0.4592766
917.70 0.4590985
917.80 0.4589204
917.90 0.4587422
918.00 0.4585641
918.10 0.458386
918.20 0.4582078
918.30 0.4580297
918.40 0.4578516
918.50 0.4576734
918.60 0.4574953
918.70 0.4573172
918.80 0.4571391
918.90 0.4569609
919.00 0.4567828
919.10 0.4566047
919.20 0.4564266
919.30 0.4562485
919.40 0.4560704
919.50 0.4558922
919.60 0.4557262
919.70 0.4555646
919.80 0.4554031
919.90 0.4552415
920.00 0.4550799
920.10 0.4549184
920.20 0.4547568
920.30 0.4545952
920.40 0.4544337
920.50 0.4542721
920.60 0.4541106
920.70 0.453949
920.80 0.4537875
920.90 0.4536259
921.00 0.4534644
921.10 0.4533028
921.20 0.4531413
921.30 0.4529797
921.40 0.4528182
921.50 0.4526566
921.60 0.4524951
921.70 0.4523335
921.80 0.452172
921.90 0.4520104
922.00 0.4518489
922.10 0.4516874
922.20 0.4515258
922.30 0.4513643
922.40 0.4512028
922.50 0.4510412
922.60 0.4508797
922.70 0.4507182
922.80 0.4505566
922.90 0.4503951
923.00 0.4502336
923.10 0.450072
923.20 0.4499105
923.30 0.449749
923.40 0.4495875
923.50 0.449426
923.60 0.4492644
923.70 0.4491029
923.80 0.4489414
923.90 0.4487799
924.00 0.4486184
924.10 0.4484569
924.20 0.4483905
924.30 0.4483825
924.40 0.4483745
924.50 0.4483665
924.60 0.4483584
924.70 0.4483504
924.80 0.4483424
924.90 0.4483344
925.00 0.4483264
925.10 0.4483183
925.20 0.4483103
925.30 0.4483023
925.40 0.4482943
925.50 0.4482863
925.60 0.4482782
925.70 0.4482702
925.80 0.4482622
925.90 0.4482542
926.00 0.4482462
926.10 0.4482382
926.20 0.4482301
926.30 0.4482221
926.40 0.4482141
926.50 0.4482061
926.60 0.4481981
926.70 0.44819
926.80 0.448182
926.90 0.448174
927.00 0.448166
927.10 0.448158
927.20 0.44815
927.30 0.4481419
927.40 0.4481339
927.50 0.4481259
927.60 0.4481179
927.70 0.4481099
927.80 0.4481019
927.90 0.4480938
928.00 0.4480858
928.10 0.4480778
928.20 0.4480698
928.30 0.4480618
928.40 0.4480538
928.50 0.4480457
928.60 0.4480377
928.70 0.4480297
928.80 0.4480121
928.90 0.4479701
929.00 0.447928
929.10 0.4478859
929.20 0.4478438
929.30 0.4478017
929.40 0.4477596
929.50 0.4477175
929.60 0.4476754
929.70 0.4476333
929.80 0.4475913
929.90 0.4475492
930.00 0.4475071
930.10 0.447465
930.20 0.4474229
930.30 0.4473808
930.40 0.4473387
930.50 0.4472967
930.60 0.4472546
930.70 0.4472125
930.80 0.4471704
930.90 0.4471283
931.00 0.4470862
931.10 0.4470442
931.20 0.4470021
931.30 0.44696
931.40 0.4469179
931.50 0.4468758
931.60 0.4468338
931.70 0.4467917
931.80 0.4467496
931.90 0.4467075
932.00 0.4466654
932.10 0.4466234
932.20 0.4465813
932.30 0.4465392
932.40 0.4464971
932.50 0.446455
932.60 0.446413
932.70 0.4463709
932.80 0.4463288
932.90 0.4462867
933.00 0.4462447
933.10 0.4462026
933.20 0.4461605
933.30 0.4461184
933.40 0.4460763
933.50 0.44596
933.60 0.4458133
933.70 0.4456665
933.80 0.4455198
933.90 0.4453731
934.00 0.4452264
934.10 0.4450797
934.20 0.444933
934.30 0.4447863
934.40 0.4446395
934.50 0.4444928
934.60 0.4443461
934.70 0.4441994
934.80 0.4440527
934.90 0.443906
935.00 0.4437593
935.10 0.4436126
935.20 0.4434659
935.30 0.4433192
935.40 0.4431725
935.50 0.4430258
935.60 0.4428791
935.70 0.4427324
935.80 0.4425857
935.90 0.442439
936.00 0.4422923
936.10 0.4421456
936.20 0.441999
936.30 0.4418523
936.40 0.4417056
936.50 0.4415589
936.60 0.4414122
936.70 0.4412655
936.80 0.4411188
936.90 0.4409722
937.00 0.4408255
937.10 0.4406788
937.20 0.4405321
937.30 0.4403854
937.40 0.4402388
937.50 0.4400921
937.60 0.4399454
937.70 0.4397987
937.80 0.4396521
937.90 0.4395054
938.00 0.4393587
938.10 0.4392121
938.20 0.4390771
938.30 0.4389434
938.40 0.4388097
938.50 0.438676
938.60 0.4385424
938.70 0.4384087
938.80 0.438275
938.90 0.4381413
939.00 0.4380076
939.10 0.437874
939.20 0.4377403
939.30 0.4376066
939.40 0.4374729
939.50 0.4373393
939.60 0.4372056
939.70 0.4370719
939.80 0.4369383
939.90 0.4368046
940.00 0.4366709
940.10 0.4365373
940.20 0.4364036
940.30 0.4362699
940.40 0.4361363
940.50 0.4360026
940.60 0.435869
940.70 0.4357353
940.80 0.4356016
940.90 0.435468
941.00 0.4353343
941.10 0.4352007
941.20 0.435067
941.30 0.4349334
941.40 0.4347997
941.50 0.4346661
941.60 0.4345324
941.70 0.4343988
941.80 0.4342651
941.90 0.4341315
942.00 0.4339978
942.10 0.4338642
942.20 0.4337306
942.30 0.4335969
942.40 0.4334633
942.50 0.4333296
942.60 0.433196
942.70 0.4330624
942.80 0.4329287
942.90 0.4328692
943.00 0.4328216
943.10 0.4327741
943.20 0.4327266
943.30 0.4326791
943.40 0.4326316
943.50 0.4325841
943.60 0.4325366
943.70 0.4324891
943.80 0.4324416
943.90 0.4323941
944.00 0.4323466
944.10 0.4322991
944.20 0.4322516
944.30 0.4322041
944.40 0.4321566
944.50 0.4321091
944.60 0.4320616
944.70 0.4320141
944.80 0.4319666
944.90 0.4319191
945.00 0.4318716
945.10 0.4318241
945.20 0.4317766
945.30 0.4317291
945.40 0.4316816
945.50 0.4316341
945.60 0.4315866
945.70 0.4315391
945.80 0.4314916
945.90 0.4314441
946.00 0.4313966
946.10 0.4313491
946.20 0.4313016
946.30 0.4312541
946.40 0.4312066
946.50 0.4311591
946.60 0.4311116
946.70 0.4310641
946.80 0.4310166
946.90 0.4309692
947.00 0.4309217
947.10 0.4308742
947.20 0.4308267
947.30 0.4307792
947.40 0.4307317
947.50 0.4306842
947.60 0.4306034
947.70 0.4304984
947.80 0.4303934
947.90 0.4302885
948.00 0.4301835
948.10 0.4300786
948.20 0.4299736
948.30 0.4298686
948.40 0.4297637
948.50 0.4296587
948.60 0.4295538
948.70 0.4294488
948.80 0.4293438
948.90 0.4292389
949.00 0.4291339
949.10 0.429029
949.20 0.428924
949.30 0.4288191
949.40 0.4287141
949.50 0.4286092
949.60 0.4285042
949.70 0.4283993
949.80 0.4282943
949.90 0.4281894
950.00 0.4280844
950.10 0.427982
950.20 0.4278796
950.30 0.4277773
950.40 0.4276749
950.50 0.4275725
950.60 0.4274701
950.70 0.4273677
950.80 0.4272653
950.90 0.4271629
951.00 0.4270605
951.10 0.4269582
951.20 0.4268558
951.30 0.4267534
951.40 0.426651
951.50 0.4265486
951.60 0.4264462
951.70 0.4263438
951.80 0.4262414
951.90 0.426139
952.00 0.4260366
952.10 0.4259342
952.20 0.4258318
952.30 0.4257291
952.40 0.4256212
952.50 0.4255133
952.60 0.4254054
952.70 0.4252975
952.80 0.4251896
952.90 0.4250817
953.00 0.4249738
953.10 0.4248659
953.20 0.424758
953.30 0.4246501
953.40 0.4245422
953.50 0.4244343
953.60 0.4243264
953.70 0.4242185
953.80 0.4241106
953.90 0.4240027
954.00 0.4238948
954.10 0.4237868
954.20 0.4236789
954.30 0.423571
954.40 0.4234631
954.50 0.4233552
954.60 0.4232473
954.70 0.4231394
954.80 0.4230315
954.90 0.4229236
955.00 0.4228157
955.10 0.4227078
955.20 0.4225999
955.30 0.422492
955.40 0.4223841
955.50 0.4222761
955.60 0.4221682
955.70 0.4220603
955.80 0.4219524
955.90 0.4218445
956.00 0.4217366
956.10 0.4216287
956.20 0.4215208
956.30 0.4214129
956.40 0.4213049
956.50 0.421197
956.60 0.4210891
956.70 0.4209812
956.80 0.4208733
956.90 0.4207654
957.00 0.4206574
957.10 0.4205637
957.20 0.4205014
957.30 0.4204391
957.40 0.4203768
957.50 0.4203145
957.60 0.4202522
957.70 0.4201899
957.80 0.4201276
957.90 0.4200653
958.00 0.420003
958.10 0.4199407
958.20 0.4198784
958.30 0.4198161
958.40 0.4197538
958.50 0.4196915
958.60 0.4196292
958.70 0.4195669
958.80 0.4195046
958.90 0.4194423
959.00 0.41938
959.10 0.4193177
959.20 0.4192554
959.30 0.4191931
959.40 0.4191307
959.50 0.4190684
959.60 0.4190061
959.70 0.4189438
959.80 0.4188815
959.90 0.4188192
960.00 0.4187569
960.10 0.4186946
960.20 0.4186323
960.30 0.41857
960.40 0.4185077
960.50 0.4184454
960.60 0.4183831
960.70 0.4183208
960.80 0.4182585
960.90 0.4181962
961.00 0.4181339
961.10 0.4180715
961.20 0.4180092
961.30 0.4179469
961.40 0.4178846
961.50 0.4178223
961.60 0.41776
961.70 0.4176977
961.80 0.4176354
961.90 0.4175693
962.00 0.4174954
962.10 0.4174214
962.20 0.4173474
962.30 0.4172735
962.40 0.4171995
962.50 0.4171256
962.60 0.4170516
962.70 0.4169776
962.80 0.4169037
962.90 0.4168297
963.00 0.4167557
963.10 0.4166818
963.20 0.4166078
963.30 0.4165338
963.40 0.4164599
963.50 0.4163859
963.60 0.4163119
963.70 0.4162379
963.80 0.416164
963.90 0.41609
964.00 0.416016
964.10 0.4159421
964.20 0.4158681
964.30 0.4157941
964.40 0.4157202
964.50 0.4156462
964.60 0.4155722
964.70 0.4154982
964.80 0.4154243
964.90 0.4153503
965.00 0.4152763
965.10 0.4152024
965.20 0.4151284
965.30 0.4150544
965.40 0.4149804
965.50 0.4149065
965.60 0.4148325
965.70 0.4147585
965.80 0.4146845
965.90 0.4146106
966.00 0.4145366
966.10 0.4144626
966.20 0.4143886
966.30 0.4143147
966.40 0.4142407
966.50 0.4141667
966.60 0.4140927
966.70 0.4140193
966.80 0.4139517
966.90 0.413884
967.00 0.4138164
967.10 0.4137488
967.20 0.4136811
967.30 0.4136135
967.40 0.4135458
967.50 0.4134782
967.60 0.4134106
967.70 0.4133429
967.80 0.4132753
967.90 0.4132076
968.00 0.41314
968.10 0.4130724
968.20 0.4130047
968.30 0.4129371
968.40 0.4128694
968.50 0.4128018
968.60 0.4127341
968.70 0.4126665
968.80 0.4125988
968.90 0.4125312
969.00 0.4124636
969.10 0.4123959
969.20 0.4123283
969.30 0.4122606
969.40 0.412193
969.50 0.4121253
969.60 0.4120577
969.70 0.41199
969.80 0.4119224
969.90 0.4118547
970.00 0.4117871
970.10 0.4117194
970.20 0.4116518
970.30 0.4115842
970.40 0.4115165
970.50 0.4114489
970.60 0.4113812
970.70 0.4113136
970.80 0.4112459
970.90 0.4111783
971.00 0.4111106
971.10 0.411043
971.20 0.4109753
971.30 0.4109077
971.40 0.41084
971.50 0.4107724
971.60 0.4106977
971.70 0.4106185
971.80 0.4105393
971.90 0.4104602
972.00 0.410381
972.10 0.4103019
972.20 0.4102227
972.30 0.4101435
972.40 0.4100644
972.50 0.4099852
972.60 0.409906
972.70 0.4098269
972.80 0.4097477
972.90 0.4096685
973.00 0.4095894
973.10 0.4095102
973.20 0.409431
973.30 0.4093518
973.40 0.4092727
973.50 0.4091935
973.60 0.4091143
973.70 0.4090352
973.80 0.408956
973.90 0.4088768
974.00 0.4087977
974.10 0.4087185
974.20 0.4086393
974.30 0.4085601
974.40 0.408481
974.50 0.4084018
974.60 0.4083226
974.70 0.4082434
974.80 0.4081643
974.90 0.4080851
975.00 0.4080059
975.10 0.4079267
975.20 0.4078476
975.30 0.4077684
975.40 0.4076892
975.50 0.40761
975.60 0.4075309
975.70 0.4074517
975.80 0.4073725
975.90 0.4072933
976.00 0.4072142
976.10 0.407135
976.20 0.4070558
976.30 0.4069766
976.40 0.4068974
976.50 0.4068265
976.60 0.4067565
976.70 0.4066866
976.80 0.4066166
976.90 0.4065467
977.00 0.4064768
977.10 0.4064068
977.20 0.4063369
977.30 0.4062669
977.40 0.406197
977.50 0.406127
977.60 0.4060571
977.70 0.4059871
977.80 0.4059172
977.90 0.4058472
978.00 0.4057773
978.10 0.4057074
978.20 0.4056374
978.30 0.4055675
978.40 0.4054975
978.50 0.4054276
978.60 0.4053576
978.70 0.4052877
978.80 0.4052177
978.90 0.4051478
979.00 0.4050778
979.10 0.4050079
979.20 0.4049379
979.30 0.404868
979.40 0.404798
979.50 0.4047281
979.60 0.4046581
979.70 0.4045882
979.80 0.4045182
979.90 0.4044482
980.00 0.4043783
980.10 0.4043083
980.20 0.4042384
980.30 0.4041684
980.40 0.4040985
980.50 0.4040285
980.60 0.4039586
980.70 0.4038886
980.80 0.4038187
980.90 0.4037487
981.00 0.4036787
981.10 0.4036088
981.20 0.4035388
981.30 0.4034689
981.40 0.4033911
981.50 0.4033127
981.60 0.4032343
981.70 0.4031559
981.80 0.4030775
981.90 0.4029991
982.00 0.4029207
982.10 0.4028423
982.20 0.4027639
982.30 0.4026855
982.40 0.4026071
982.50 0.4025287
982.60 0.4024503
982.70 0.4023719
982.80 0.4022935
982.90 0.4022151
983.00 0.4021367
983.10 0.4020583
983.20 0.4019799
983.30 0.4019015
983.40 0.4018231
983.50 0.4017446
983.60 0.4016662
983.70 0.4015878
983.80 0.4015094
983.90 0.401431
984.00 0.4013526
984.10 0.4012742
984.20 0.4011958
984.30 0.4011174
984.40 0.401039
984.50 0.4009606
984.60 0.4008822
984.70 0.4008038
984.80 0.4007254
984.90 0.400647
985.00 0.4005685
985.10 0.4004901
985.20 0.4004117
985.30 0.4003333
985.40 0.4002549
985.50 0.4001765
985.60 0.4000981
985.70 0.4000197
985.80 0.3999413
985.90 0.3998629
986.00 0.3997844
986.10 0.399706
986.20 0.3996276
986.30 0.3995537
986.40 0.3994815
986.50 0.3994093
986.60 0.3993371
986.70 0.3992649
986.80 0.3991927
986.90 0.3991205
987.00 0.3990483
987.10 0.3989762
987.20 0.398904
987.30 0.3988318
987.40 0.3987596
987.50 0.3986874
987.60 0.3986152
987.70 0.398543
987.80 0.3984708
987.90 0.3983986
988.00 0.3983264
988.10 0.3982542
988.20 0.398182
988.30 0.3981098
988.40 0.3980376
988.50 0.3979654
988.60 0.3978932
988.70 0.397821
988.80 0.3977488
988.90 0.3976766
989.00 0.3976044
989.10 0.3975323
989.20 0.3974601
989.30 0.3973879
989.40 0.3973157
989.50 0.3972435
989.60 0.3971713
989.70 0.3970991
989.80 0.3970269
989.90 0.3969547
990.00 0.3968825
990.10 0.3968103
990.20 0.3967381
990.30 0.3966659
990.40 0.3965937
990.50 0.3965215
990.60 0.3964492
990.70 0.396377
990.80 0.3963048
990.90 0.3962326
991.00 0.3961604
991.10 0.3960882
991.20 0.3960177
991.30 0.3959517
991.40 0.3958856
991.50 0.3958196
991.60 0.3957536
991.70 0.3956876
991.80 0.3956215
991.90 0.3955555
992.00 0.3954895
992.10 0.3954234
992.20 0.3953574
992.30 0.3952914
992.40 0.3952254
992.50 0.3951593
992.60 0.3950933
992.70 0.3950273
992.80 0.3949612
992.90 0.3948952
993.00 0.3948292
993.10 0.3947631
993.20 0.3946971
993.30 0.3946311
993.40 0.394565
993.50 0.394499
993.60 0.394433
993.70 0.3943669
993.80 0.3943009
993.90 0.3942349
994.00 0.3941688
994.10 0.3941028
994.20 0.3940368
994.30 0.3939707
994.40 0.3939047
994.50 0.3938387
994.60 0.3937726
994.70 0.3937066
994.80 0.3936406
994.90 0.3935745
995.00 0.3935085
995.10 0.3934424
995.20 0.3933764
995.30 0.3933104
995.40 0.3932443
995.50 0.3931783
995.60 0.3931123
995.70 0.3930462
995.80 0.3929802
995.90 0.3929141
996.00 0.3928481
996.10 0.3927821
996.20 0.3926849
996.30 0.3925643
996.40 0.3924438
996.50 0.3923232
996.60 0.3922026
996.70 0.392082
996.80 0.3919614
996.90 0.3918408
997.00 0.3917203
997.10 0.3915997
997.20 0.3914791
997.30 0.3913585
997.40 0.3912379
997.50 0.3911173
997.60 0.3909967
997.70 0.3908761
997.80 0.3907556
997.90 0.390635
998.00 0.3905144
998.10 0.3903938
998.20 0.3902732
998.30 0.3901526
998.40 0.390032
998.50 0.3899114
998.60 0.3897908
998.70 0.3896702
998.80 0.3895496
998.90 0.389429
999.00 0.3893084
999.10 0.3891878
999.20 0.3890672
999.30 0.3889466
999.40 0.3888261
999.50 0.3887055
999.60 0.3885849
999.70 0.3884643
999.80 0.3883437
999.90 0.3882231
1000.00 0.3881025
1000.10 0.3879811
1000.20 0.3878597
1000.30 0.3877383
1000.40 0.387617
1000.50 0.3874956
1000.60 0.3873742
1000.70 0.3872528
1000.80 0.3871315
1000.90 0.3870101
1001.00 0.3868887
1001.10 0.3867673
1001.20 0.3866498
1001.30 0.3865347
1001.40 0.3864196
1001.50 0.3863046
1001.60 0.3861895
1001.70 0.3860744
1001.80 0.3859594
1001.90 0.3858443
1002.00 0.3857292
1002.10 0.3856142
1002.20 0.3854991
1002.30 0.385384
1002.40 0.385269
1002.50 0.3851539
1002.60 0.3850389
1002.70 0.3849238
1002.80 0.3848087
1002.90 0.3846937
1003.00 0.3845786
1003.10 0.3844635
1003.20 0.3843485
1003.30 0.3842334
1003.40 0.3841183
1003.50 0.3840033
1003.60 0.3838882
1003.70 0.3837731
1003.80 0.3836581
1003.90 0.383543
1004.00 0.383428
1004.10 0.3833129
1004.20 0.3831978
1004.30 0.3830828
1004.40 0.3829677
1004.50 0.3828526
1004.60 0.3827376
1004.70 0.3826225
1004.80 0.3825074
1004.90 0.3823924
1005.00 0.3822773
1005.10 0.3821622
1005.20 0.3820472
1005.30 0.3819321
1005.40 0.3818171
1005.50 0.381702
1005.60 0.3815869
1005.70 0.3814719
1005.80 0.3813568
1005.90 0.3812417
1006.00 0.3811267
1006.10 0.3810116
1006.20 0.3809254
1006.30 0.3808824
1006.40 0.3808394
1006.50 0.3807964
1006.60 0.3807535
1006.70 0.3807105
1006.80 0.3806675
1006.90 0.3806245
1007.00 0.3805815
1007.10 0.3805386
1007.20 0.3804956
1007.30 0.3804526
1007.40 0.3804096
1007.50 0.3803667
1007.60 0.3803237
1007.70 0.3802807
1007.80 0.3802377
1007.90 0.3801947
1008.00 0.3801518
1008.10 0.3801088
1008.20 0.3800658
1008.30 0.3800228
1008.40 0.3799799
1008.50 0.3799369
1008.60 0.3798939
1008.70 0.3798509
1008.80 0.3798079
1008.90 0.379765
1009.00 0.379722
1009.10 0.379679
1009.20 0.379636
1009.30 0.3795931
1009.40 0.3795501
1009.50 0.3795071
1009.60 0.3794641
1009.70 0.3794211
1009.80 0.3793782
1009.90 0.3793352
1010.00 0.3792922
1010.10 0.3792492
1010.20 0.3792063
1010.30 0.3791633
1010.40 0.3791203
1010.50 0.3790773
1010.60 0.3790343
1010.70 0.3789914
1010.80 0.3789484
1010.90 0.3789054
1011.00 0.3788624
1011.10 0.3788195
1011.20 0.3787765
1011.30 0.3786939
1011.40 0.3786113
1011.50 0.3785287
1011.60 0.3784461
1011.70 0.3783635
1011.80 0.3782809
1011.90 0.3781983
1012.00 0.3781157
1012.10 0.3780331
1012.20 0.3779505
1012.30 0.3778679
1012.40 0.3777853
1012.50 0.3777027
1012.60 0.3776201
1012.70 0.3775375
1012.80 0.3774549
1012.90 0.3773723
1013.00 0.3772897
1013.10 0.3772071
1013.20 0.3771245
1013.30 0.3770419
1013.40 0.3769593
1013.50 0.3768767
1013.60 0.3767941
1013.70 0.3767115
1013.80 0.3766289
1013.90 0.3765463
1014.00 0.3764637
1014.10 0.3763811
1014.20 0.3762985
1014.30 0.3762159
1014.40 0.3761333
1014.50 0.3760507
1014.60 0.3759681
1014.70 0.3758855
1014.80 0.3758029
1014.90 0.3757203
1015.00 0.3756377
1015.10 0.3755551
1015.20 0.3754725
1015.30 0.3753899
1015.40 0.3753073
1015.50 0.3752247
1015.60 0.3751421
1015.70 0.3750595
1015.80 0.3749769
1015.90 0.3748943
1016.00 0.3748117
1016.10 0.3747291
1016.20 0.3746465
1016.30 0.3745683
1016.40 0.3745004
1016.50 0.3744324
1016.60 0.3743645
1016.70 0.3742965
1016.80 0.3742285
1016.90 0.3741606
1017.00 0.3740926
1017.10 0.3740247
1017.20 0.3739567
1017.30 0.3738888
1017.40 0.3738208
1017.50 0.3737529
1017.60 0.3736849
1017.70 0.3736169
1017.80 0.373549
1017.90 0.373481
1018.00 0.3734131
1018.10 0.3733451
1018.20 0.3732772
1018.30 0.3732092
1018.40 0.3731412
1018.50 0.3730733
1018.60 0.3730053
1018.70 0.3729374
1018.80 0.3728694
1018.90 0.3728015
1019.00 0.3727335
1019.10 0.3726656
1019.20 0.3725976
1019.30 0.3725296
1019.40 0.3724617
1019.50 0.3723937
1019.60 0.3723258
1019.70 0.3722578
1019.80 0.3721899
1019.90 0.3721219
1020.00 0.372054
1020.10 0.371986
1020.20 0.371918
1020.30 0.3718501
1020.40 0.3717821
1020.50 0.3717142
1020.60 0.3716462
1020.70 0.3715783
1020.80 0.3715103
1020.90 0.3714424
1021.00 0.3713744
1021.10 0.3713064
1021.20 0.3712385
1021.30 0.3711705
1021.40 0.3711077
1021.50 0.371057
1021.60 0.3710062
1021.70 0.3709554
1021.80 0.3709047
1021.90 0.3708539
1022.00 0.3708031
1022.10 0.3707524
1022.20 0.3707016
1022.30 0.3706508
1022.40 0.3706001
1022.50 0.3705493
1022.60 0.3704985
1022.70 0.3704478
1022.80 0.370397
1022.90 0.3703462
1023.00 0.3702955
1023.10 0.3702447
1023.20 0.3701939
1023.30 0.3701431
1023.40 0.3700924
1023.50 0.3700416
1023.60 0.3699908
1023.70 0.3699401
1023.80 0.3698893
1023.90 0.3698385
1024.00 0.3697878
1024.10 0.369737
1024.20 0.3696862
1024.30 0.3696355
1024.40 0.3695847
1024.50 0.3695339
1024.60 0.3694832
1024.70 0.3694324
1024.80 0.3693816
1024.90 0.3693309
1025.00 0.3692801
1025.10 0.3692293
1025.20 0.3691786
1025.30 0.3691278
1025.40 0.369077
1025.50 0.3690263
1025.60 0.3689755
1025.70 0.3689247
1025.80 0.368874
1025.90 0.3688232
1026.00 0.3687724
1026.10 0.3687217
1026.20 0.3686709
1026.30 0.3686201
1026.40 0.3685694
1026.50 0.3685147
1026.60 0.368425
1026.70 0.3683352
1026.80 0.3682455
1026.90 0.3681558
1027.00 0.368066
1027.10 0.3679763
1027.20 0.3678866
1027.30 0.3677969
1027.40 0.3677071
1027.50 0.3676174
1027.60 0.3675277
1027.70 0.367438
1027.80 0.3673482
1027.90 0.3672585
1028.00 0.3671688
1028.10 0.367079
1028.20 0.3669893
1028.30 0.3668996
1028.40 0.3668099
1028.50 0.3667201
1028.60 0.3666304
1028.70 0.3665407
1028.80 0.3664509
1028.90 0.3663612
1029.00 0.3662715
1029.10 0.3661818
1029.20 0.366092
1029.30 0.3660023
1029.40 0.3659126
1029.50 0.3658229
1029.60 0.3657331
1029.70 0.3656434
1029.80 0.3655537
1029.90 0.3654639
1030.00 0.3653742
1030.10 0.3652845
1030.20 0.3651948
1030.30 0.365105
1030.40 0.3650153
1030.50 0.3649256
1030.60 0.3648358
1030.70 0.3647461
1030.80 0.3646564
1030.90 0.3645667
1031.00 0.3644769
1031.10 0.3643872
1031.20 0.3642975
1031.30 0.3642077
1031.40 0.364118
1031.50 0.3640283
1031.60 0.3639386
1031.70 0.363849
1031.80 0.3637597
1031.90 0.3636703
1032.00 0.3635809
1032.10 0.3634915
1032.20 0.3634021
1032.30 0.3633128
1032.40 0.3632234
1032.50 0.363134
1032.60 0.3630446
1032.70 0.3629552
1032.80 0.3628659
1032.90 0.3627765
1033.00 0.3626871
1033.10 0.3625977
1033.20 0.3625083
1033.30 0.362419
1033.40 0.3623296
1033.50 0.3622402
1033.60 0.3621508
1033.70 0.3620614
1033.80 0.3619721
1033.90 0.3618827
1034.00 0.3617933
1034.10 0.3617039
1034.20 0.3616145
1034.30 0.3615251
1034.40 0.3614358
1034.50 0.3613464
1034.60 0.361257
1034.70 0.3611676
1034.80 0.3610782
1034.90 0.3609889
1035.00 0.3608995
1035.10 0.3608101
1035.20 0.3607207
1035.30 0.3606313
1035.40 0.360542
1035.50 0.3604526
1035.60 0.3603632
1035.70 0.3602738
1035.80 0.3601844
1035.90 0.3600951
1036.00 0.3600057
1036.10 0.3599163
1036.20 0.3598269
1036.30 0.3597375
1036.40 0.3596481
1036.50 0.3595588
1036.60 0.3594694
1036.70 0.35938
1036.80 0.3592906
1036.90 0.3592167
1037.00 0.3591445
1037.10 0.3590723
1037.20 0.3590001
1037.30 0.3589279
1037.40 0.3588557
1037.50 0.3587835
1037.60 0.3587113
1037.70 0.3586391
1037.80 0.3585669
1037.90 0.3584947
1038.00 0.3584225
1038.10 0.3583503
1038.20 0.3582781
1038.30 0.3582059
1038.40 0.3581337
1038.50 0.3580615
1038.60 0.3579893
1038.70 0.3579171
1038.80 0.3578449
1038.90 0.3577726
1039.00 0.3577004
1039.10 0.3576282
1039.20 0.357556
1039.30 0.3574838
1039.40 0.3574116
1039.50 0.3573394
1039.60 0.3572672
1039.70 0.357195
1039.80 0.3571228
1039.90 0.3570506
1040.00 0.3569784
1040.10 0.3569062
1040.20 0.356834
1040.30 0.3567618
1040.40 0.3566896
1040.50 0.3566174
1040.60 0.3565452
1040.70 0.356473
1040.80 0.3564008
1040.90 0.3563286
1041.00 0.3562564
1041.10 0.3561842
1041.20 0.356112
1041.30 0.3560398
1041.40 0.3559676
1041.50 0.3558954
1041.60 0.3558232
1041.70 0.355751
1041.80 0.3556788
1041.90 0.3556066
1042.00 0.3555344
1042.10 0.3554675
1042.20 0.3554012
1042.30 0.355335
1042.40 0.3552687
1042.50 0.3552024
1042.60 0.3551362
1042.70 0.3550699
1042.80 0.3550036
1042.90 0.3549374
1043.00 0.3548711
1043.10 0.3548048
1043.20 0.3547386
1043.30 0.3546723
1043.40 0.354606
1043.50 0.3545398
1043.60 0.3544735
1043.70 0.3544072
1043.80 0.354341
1043.90 0.3542747
1044.00 0.3542084
1044.10 0.3541422
1044.20 0.3540759
1044.30 0.3540096
1044.40 0.3539434
1044.50 0.3538771
1044.60 0.3538108
1044.70 0.3537446
1044.80 0.3536783
1044.90 0.353612
1045.00 0.3535458
1045.10 0.3534795
1045.20 0.3534132
1045.30 0.353347
1045.40 0.3532807
1045.50 0.3532144
1045.60 0.3531482
1045.70 0.3530819
1045.80 0.3530156
1045.90 0.3529494
1046.00 0.3528831
1046.10 0.3528168
1046.20 0.3527506
1046.30 0.3526843
1046.40 0.352618
1046.50 0.3525518
1046.60 0.3524855
1046.70 0.3524192
1046.80 0.352353
1046.90 0.3522867
1047.00 0.3522204
1047.10 0.3521542
1047.20 0.3520879
1047.30 0.3520234
1047.40 0.3519602
1047.50 0.3518969
1047.60 0.3518336
1047.70 0.3517704
1047.80 0.3517071
1047.90 0.3516439
1048.00 0.3515806
1048.10 0.3515173
1048.20 0.3514541
1048.30 0.3513908
1048.40 0.3513275
1048.50 0.3512643
1048.60 0.351201
1048.70 0.3511378
1048.80 0.3510745
1048.90 0.3510112
1049.00 0.350948
1049.10 0.3508847
1049.20 0.3508214
1049.30 0.3507582
1049.40 0.3506949
1049.50 0.3506316
1049.60 0.3505684
1049.70 0.3505051
1049.80 0.3504419
1049.90 0.3503786
1050.00 0.3503153
1050.10 0.3502528
1050.20 0.3501902
1050.30 0.3501276
1050.40 0.3500651
1050.50 0.3500025
1050.60 0.3499399
1050.70 0.3498774
1050.80 0.3498148
1050.90 0.3497522
1051.00 0.3496897
1051.10 0.3496271
1051.20 0.3495645
1051.30 0.3495019
1051.40 0.3494394
1051.50 0.3493768
1051.60 0.3493142
1051.70 0.3492517
1051.80 0.3491891
1051.90 0.3491265
1052.00 0.349064
1052.10 0.3490014
1052.20 0.3489388
1052.30 0.3488762
1052.40 0.3488137
1052.50 0.3487481
1052.60 0.3486558
1052.70 0.3485635
1052.80 0.3484712
1052.90 0.3483789
1053.00 0.3482866
1053.10 0.3481943
1053.20 0.348102
1053.30 0.3480097
1053.40 0.3479174
1053.50 0.3478251
1053.60 0.3477328
1053.70 0.3476405
1053.80 0.3475482
1053.90 0.3474559
1054.00 0.3473636
1054.10 0.3472713
1054.20 0.347179
1054.30 0.3470867
1054.40 0.3469944
1054.50 0.3469021
1054.60 0.3468098
1054.70 0.3467175
1054.80 0.3466252
1054.90 0.3465329
1055.00 0.3464406
1055.10 0.3463482
1055.20 0.3462559
1055.30 0.3461636
1055.40 0.3460713
1055.50 0.345979
1055.60 0.3458867
1055.70 0.3457944
1055.80 0.3457021
1055.90 0.3456098
1056.00 0.3455175
1056.10 0.3454251
1056.20 0.3453328
1056.30 0.3452405
1056.40 0.3451482
1056.50 0.3450559
1056.60 0.3449636
1056.70 0.3448713
1056.80 0.344779
1056.90 0.3446866
1057.00 0.3445943
1057.10 0.344502
1057.20 0.3444097
1057.30 0.3443174
1057.40 0.3442251
1057.50 0.3441327
1057.60 0.3440404
1057.70 0.3439481
1057.80 0.3438551
1057.90 0.3437604
1058.00 0.3436657
1058.10 0.343571
1058.20 0.3434763
1058.30 0.3433816
1058.40 0.3432869
1058.50 0.3431922
1058.60 0.3430975
1058.70 0.3430028
1058.80 0.3429081
1058.90 0.3428134
1059.00 0.3427187
1059.10 0.342624
1059.20 0.3425293
1059.30 0.3424346
1059.40 0.34234
1059.50 0.3422453
1059.60 0.3421506
1059.70 0.3420559
1059.80 0.3419612
1059.90 0.3418665
1060.00 0.3417718
1060.10 0.3416771
1060.20 0.3415824
1060.30 0.3414877
1060.40 0.3413929
1060.50 0.3412982
1060.60 0.3412035
1060.70 0.3411088
1060.80 0.3410141
1060.90 0.3409194
1061.00 0.3408247
1061.10 0.34073
1061.20 0.3406353
1061.30 0.3405406
1061.40 0.3404459
1061.50 0.3403512
1061.60 0.3402565
1061.70 0.3401618
1061.80 0.3400671
1061.90 0.3399724
1062.00 0.3398777
1062.10 0.339783
1062.20 0.3396882
1062.30 0.3395935
1062.40 0.3394988
1062.50 0.3394041
1062.60 0.3393094
1062.70 0.3392147
1062.80 0.33912
1062.90 0.3390253
1063.00 0.3389306
1063.10 0.3388336
1063.20 0.3387313
1063.30 0.338629
1063.40 0.3385267
1063.50 0.3384243
1063.60 0.338322
1063.70 0.3382197
1063.80 0.3381174
1063.90 0.3380151
1064.00 0.3379128
1064.10 0.3378105
1064.20 0.3377082
1064.30 0.3376059
1064.40 0.3375036
1064.50 0.3374013
1064.60 0.3372989
1064.70 0.3371966
1064.80 0.3370943
1064.90 0.336992
1065.00 0.3368897
1065.10 0.3367874
1065.20 0.3366851
1065.30 0.3365828
1065.40 0.3364804
1065.50 0.3363781
1065.60 0.3362758
1065.70 0.3361735
1065.80 0.3360712
1065.90 0.3359689
1066.00 0.3358665
1066.10 0.3357642
1066.20 0.3356619
1066.30 0.3355596
1066.40 0.3354573
1066.50 0.3353549
1066.60 0.3352526
1066.70 0.3351503
1066.80 0.335048
1066.90 0.3349457
1067.00 0.3348433
1067.10 0.334741
1067.20 0.3346387
1067.30 0.3345364
1067.40 0.3344341
1067.50 0.3343317
1067.60 0.3342294
1067.70 0.3341271
1067.80 0.3340248
1067.90 0.3339224
1068.00 0.3338201
1068.10 0.3337178
1068.20 0.3336155
1068.30 0.3335131
1068.40 0.3334108
1068.50 0.3333306
1068.60 0.3332504
1068.70 0.3331702
1068.80 0.33309
1068.90 0.3330098
1069.00 0.3329297
1069.10 0.3328495
1069.20 0.3327693
1069.30 0.3326891
1069.40 0.3326089
1069.50 0.3325287
1069.60 0.3324485
1069.70 0.3323683
1069.80 0.3322881
1069.90 0.3322079
1070.00 0.3321277
1070.10 0.3320475
1070.20 0.3319673
1070.30 0.3318871
1070.40 0.3318069
1070.50 0.3317267
1070.60 0.3316465
1070.70 0.3315663
1070.80 0.3314862
1070.90 0.331406
1071.00 0.3313258
1071.10 0.3312456
1071.20 0.3311654
1071.30 0.3310852
1071.40 0.331005
1071.50 0.3309248
1071.60 0.3308446
1071.70 0.3307644
1071.80 0.3306842
1071.90 0.330604
1072.00 0.3305238
1072.10 0.3304436
1072.20 0.3303634
1072.30 0.3302832
1072.40 0.3302029
1072.50 0.3301227
1072.60 0.3300425
1072.70 0.3299623
1072.80 0.3298821
1072.90 0.3298019
1073.00 0.3297217
1073.10 0.3296415
1073.20 0.3295613
1073.30 0.3294811
1073.40 0.3294009
1073.50 0.3293207
1073.60 0.3292405
1073.70 0.3291603
1073.80 0.3290823
1073.90 0.3290078
1074.00 0.3289333
1074.10 0.3288587
1074.20 0.3287842
1074.30 0.3287097
1074.40 0.3286351
1074.50 0.3285606
1074.60 0.3284861
1074.70 0.3284115
1074.80 0.328337
1074.90 0.3282624
1075.00 0.3281879
1075.10 0.3281134
1075.20 0.3280388
1075.30 0.3279643
1075.40 0.3278897
1075.50 0.3278152
1075.60 0.3277407
1075.70 0.3276661
1075.80 0.3275916
1075.90 0.327517
1076.00 0.3274425
1076.10 0.3273679
1076.20 0.3272934
1076.30 0.3272189
1076.40 0.3271443
1076.50 0.3270698
1076.60 0.3269952
1076.70 0.3269207
1076.80 0.3268461
1076.90 0.3267716
1077.00 0.326697
1077.10 0.3266225
1077.20 0.326548
1077.30 0.3264734
1077.40 0.3263989
1077.50 0.3263243
1077.60 0.3262498
1077.70 0.3261752
1077.80 0.3261007
1077.90 0.3260261
1078.00 0.3259516
1078.10 0.325877
1078.20 0.3258025
1078.30 0.3257279
1078.40 0.3256534
1078.50 0.3255788
1078.60 0.3255043
1078.70 0.3254297
1078.80 0.3253552
1078.90 0.3252806
1079.00 0.3252061
1079.10 0.3251315
1079.20 0.3250492
1079.30 0.3249617
1079.40 0.3248742
1079.50 0.3247867
1079.60 0.3246993
1079.70 0.3246118
1079.80 0.3245243
1079.90 0.3244368
1080.00 0.3243493
1080.10 0.3242618
1080.20 0.3241743
1080.30 0.3240868
1080.40 0.3239993
1080.50 0.3239118
1080.60 0.3238243
1080.70 0.3237368
1080.80 0.3236493
1080.90 0.3235619
1081.00 0.3234744
1081.10 0.3233869
1081.20 0.3232994
1081.30 0.3232119
1081.40 0.3231244
1081.50 0.3230369
1081.60 0.3229494
1081.70 0.3228619
1081.80 0.3227744
1081.90 0.3226869
1082.00 0.3225994
1082.10 0.3225119
1082.20 0.3224244
1082.30 0.3223369
1082.40 0.3222494
1082.50 0.3221619
1082.60 0.3220744
1082.70 0.3219869
1082.80 0.3218994
1082.90 0.3218119
1083.00 0.3217244
1083.10 0.3216369
1083.20 0.3215494
1083.30 0.3214619
1083.40 0.3213744
1083.50 0.3212869
1083.60 0.3211994
1083.70 0.3211119
1083.80 0.3210243
1083.90 0.3209368
1084.00 0.3208493
1084.10 0.3207618
1084.20 0.3206743
1084.30 0.3205868
1084.40 0.3204993
1084.50 0.3204118
1084.60 0.3203219
1084.70 0.3202295
1084.80 0.3201372
1084.90 0.3200449
1085.00 0.3199525
1085.10 0.3198602
1085.20 0.3197679
1085.30 0.3196755
1085.40 0.3195832
1085.50 0.3194909
1085.60 0.3193985
1085.70 0.3193062
1085.80 0.3192138
1085.90 0.3191215
1086.00 0.3190292
1086.10 0.3189368
1086.20 0.3188445
1086.30 0.3187521
1086.40 0.3186598
1086.50 0.3185675
1086.60 0.3184751
1086.70 0.3183828
1086.80 0.3182904
1086.90 0.3181981
1087.00 0.3181057
1087.10 0.3180134
1087.20 0.3179211
1087.30 0.3178287
1087.40 0.3177364
1087.50 0.317644
1087.60 0.3175517
1087.70 0.3174593
1087.80 0.317367
1087.90 0.3172746
1088.00 0.3171823
1088.10 0.3170899
1088.20 0.3169976
1088.30 0.3169053
1088.40 0.3168129
1088.50 0.3167206
1088.60 0.3166282
1088.70 0.3165359
1088.80 0.3164435
1088.90 0.3163512
1089.00 0.3162588
1089.10 0.3161665
1089.20 0.3160741
1089.30 0.3159818
1089.40 0.3158894
1089.50 0.315797
1089.60 0.3157047
1089.70 0.3156123
1089.80 0.31552
1089.90 0.3154276
1090.00 0.3153351
1090.10 0.3152406
1090.20 0.3151461
1090.30 0.3150516
1090.40 0.3149571
1090.50 0.3148626
1090.60 0.3147681
1090.70 0.3146736
1090.80 0.3145792
1090.90 0.3144847
1091.00 0.3143902
1091.10 0.3142957
1091.20 0.3142012
1091.30 0.3141067
1091.40 0.3140122
1091.50 0.3139177
1091.60 0.3138232
1091.70 0.3137287
1091.80 0.3136342
1091.90 0.3135398
1092.00 0.3134453
1092.10 0.3133508
1092.20 0.3132563
1092.30 0.3131618
1092.40 0.3130673
1092.50 0.3129728
1092.60 0.3128783
1092.70 0.3127838
1092.80 0.3126893
1092.90 0.3125948
1093.00 0.3125003
1093.10 0.3124058
1093.20 0.3123113
1093.30 0.3122168
1093.40 0.3121223
1093.50 0.3120278
1093.60 0.3119333
1093.70 0.3118388
1093.80 0.3117443
1093.90 0.3116498
1094.00 0.3115553
1094.10 0.3114608
1094.20 0.3113663
1094.30 0.3112718
1094.40 0.3111773
1094.50 0.3110828
1094.60 0.3109883
1094.70 0.3108938
1094.80 0.3107993
1094.90 0.3107048
1095.00 0.3106103
1095.10 0.3105158
1095.20 0.3104212
1095.30 0.3103267
1095.40 0.3102322
1095.50 0.3101674
1095.60 0.3101469
1095.70 0.3101265
1095.80 0.310106
1095.90 0.3100856
1096.00 0.3100651
1096.10 0.3100447
1096.20 0.3100242
1096.30 0.3100038
1096.40 0.3099833
1096.50 0.3099629
1096.60 0.3099425
1096.70 0.309922
1096.80 0.3099016
1096.90 0.3098811
1097.00 0.3098607
1097.10 0.3098402
1097.20 0.3098198
1097.30 0.3097993
1097.40 0.3097789
1097.50 0.3097584
1097.60 0.309738
1097.70 0.3097176
1097.80 0.3096971
1097.90 0.3096767
1098.00 0.3096562
1098.10 0.3096358
1098.20 0.3096153
1098.30 0.3095949
1098.40 0.3095744
1098.50 0.309554
1098.60 0.3095335
1098.70 0.3095131
1098.80 0.3094926
1098.90 0.3094722
1099.00 0.3094517
1099.10 0.3094313
1099.20 0.3094108
1099.30 0.3093904
1099.40 0.30937
1099.50 0.3093495
1099.60 0.3093291
1099.70 0.3093086
1099.80 0.3092882
1099.90 0.3092677
1100.00 0.3092473
1100.10 0.309228
1100.20 0.3092088
1100.30 0.3091896
1100.40 0.3091704
1100.50 0.3091512
1100.60 0.309132
1100.70 0.3091127
1100.80 0.3090935
1100.90 0.3090743
1101.00 0.3090591
1101.10 0.3090478
1101.20 0.3090366
1101.30 0.3090253
1101.40 0.3090141
1101.50 0.3090028
1101.60 0.3089916
1101.70 0.3089803
1101.80 0.3089691
1101.90 0.3089578
1102.00 0.3089466
1102.10 0.3089353
1102.20 0.3089241
1102.30 0.3089128
1102.40 0.3089016
1102.50 0.3088903
1102.60 0.3088791
1102.70 0.3088678
1102.80 0.3088566
1102.90 0.3088453
1103.00 0.3088341
1103.10 0.3088228
1103.20 0.3088115
1103.30 0.3088003
1103.40 0.308789
1103.50 0.3087778
1103.60 0.3087665
1103.70 0.3087553
1103.80 0.308744
1103.90 0.3087328
1104.00 0.3087215
1104.10 0.3087103
1104.20 0.308699
1104.30 0.3086878
1104.40 0.3086765
1104.50 0.3086653
1104.60 0.308654
1104.70 0.3086427
1104.80 0.3086315
1104.90 0.3086202
1105.00 0.308609
1105.10 0.3085977
1105.20 0.3085865
1105.30 0.3085752
1105.40 0.308564
1105.50 0.3085527
1105.60 0.3085414
1105.70 0.3085302
1105.80 0.3085189
1105.90 0.3085077
1106.00 0.3084964
1106.10 0.3084852
1106.20 0.3084739
1106.30 0.3084626
1106.40 0.3084514
1106.50 0.3084292
1106.60 0.3083815
1106.70 0.3083339
1106.80 0.3082862
1106.90 0.3082385
1107.00 0.3081909
1107.10 0.3081432
1107.20 0.3080955
1107.30 0.3080479
1107.40 0.3080002
1107.50 0.3079525
1107.60 0.3079049
1107.70 0.3078572
1107.80 0.3078095
1107.90 0.3077619
1108.00 0.3077142
1108.10 0.3076665
1108.20 0.3076188
1108.30 0.3075712
1108.40 0.3075235
1108.50 0.3074758
1108.60 0.3074281
1108.70 0.3073805
1108.80 0.3073328
1108.90 0.3072851
1109.00 0.3072374
1109.10 0.3071897
1109.20 0.3071421
1109.30 0.3070944
1109.40 0.3070467
1109.50 0.306999
1109.60 0.3069513
1109.70 0.3069037
1109.80 0.306856
1109.90 0.3068083
1110.00 0.3067606
1110.10 0.3067129
1110.20 0.3066652
1110.30 0.3066175
1110.40 0.3065699
1110.50 0.3065222
1110.60 0.3064745
1110.70 0.3064268
1110.80 0.3063791
1110.90 0.3063314
1111.00 0.3062837
1111.10 0.306236
1111.20 0.3061883
1111.30 0.3061407
1111.40 0.306093
1111.50 0.3060453
1111.60 0.3059976
1111.70 0.3059499
1111.80 0.3059022
1111.90 0.3058545
1112.00 0.3058068
1112.10 0.3057469
1112.20 0.3056839
1112.30 0.3056209
1112.40 0.3055579
1112.50 0.3054949
1112.60 0.3054319
1112.70 0.3053689
1112.80 0.305306
1112.90 0.305243
1113.00 0.30518
1113.10 0.305117
1113.20 0.305054
1113.30 0.304991
1113.40 0.304928
1113.50 0.304865
1113.60 0.304802
1113.70 0.304739
1113.80 0.304676
1113.90 0.304613
1114.00 0.30455
1114.10 0.304487
1114.20 0.304424
1114.30 0.304361
1114.40 0.304298
1114.50 0.304235
1114.60 0.304172
1114.70 0.304109
1114.80 0.304046
1114.90 0.303983
1115.00 0.30392
1115.10 0.303857
1115.20 0.303794
1115.30 0.3037309
1115.40 0.3036679
1115.50 0.3036049
1115.60 0.3035419
1115.70 0.3034789
1115.80 0.3034159
1115.90 0.3033529
1116.00 0.3032899
1116.10 0.3032268
1116.20 0.3031638
1116.30 0.3031008
1116.40 0.3030378
1116.50 0.3029748
1116.60 0.3029118
1116.70 0.3028487
1116.80 0.3027857
1116.90 0.3027227
1117.00 0.3026597
1117.10 0.3025966
1117.20 0.3025336
1117.30 0.3024706
1117.40 0.3024076
1117.50 0.3023445
1117.60 0.3022815
1117.70 0.3022136
1117.80 0.3021456
1117.90 0.3020776
1118.00 0.3020097
1118.10 0.3019417
1118.20 0.3018737
1118.30 0.3018057
1118.40 0.3017378
1118.50 0.3016698
1118.60 0.3016018
1118.70 0.3015339
1118.80 0.3014659
1118.90 0.3013979
1119.00 0.3013299
1119.10 0.301262
1119.20 0.301194
1119.30 0.301126
1119.40 0.301058
1119.50 0.30099
1119.60 0.3009221
1119.70 0.3008541
1119.80 0.3007861
1119.90 0.3007181
1120.00 0.3006501
1120.10 0.3005822
1120.20 0.3005142
1120.30 0.3004462
1120.40 0.3003782
1120.50 0.3003102
1120.60 0.3002422
1120.70 0.3001742
1120.80 0.3001062
1120.90 0.3000382
1121.00 0.2999703
1121.10 0.2999023
1121.20 0.2998343
1121.30 0.2997663
1121.40 0.2996983
1121.50 0.2996303
1121.60 0.2995623
1121.70 0.2994943
1121.80 0.2994263
1121.90 0.2993583
1122.00 0.2992903
1122.10 0.2992223
1122.20 0.2991543
1122.30 0.2990863
1122.40 0.2990183
1122.50 0.2989503
1122.60 0.2988823
1122.70 0.2988143
1122.80 0.2987463
1122.90 0.2986783
1123.00 0.2986102
1123.10 0.2985422
1123.20 0.2984742
1123.30 0.2984092
1123.40 0.2983441
1123.50 0.298279
1123.60 0.2982139
1123.70 0.2981489
1123.80 0.2980838
1123.90 0.2980187
1124.00 0.2979537
1124.10 0.2978886
1124.20 0.2978235
1124.30 0.2977584
1124.40 0.2976934
1124.50 0.2976283
1124.60 0.2975632
1124.70 0.2974981
1124.80 0.297433
1124.90 0.297368
1125.00 0.2973029
1125.10 0.2972378
1125.20 0.2971727
1125.30 0.2971076
1125.40 0.2970425
1125.50 0.2969775
1125.60 0.2969124
1125.70 0.2968473
1125.80 0.2967822
1125.90 0.2967171
1126.00 0.296652
1126.10 0.2965869
1126.20 0.2965218
1126.30 0.2964567
1126.40 0.2963916
1126.50 0.2963266
1126.60 0.2962615
1126.70 0.2961964
1126.80 0.2961313
1126.90 0.2960662
1127.00 0.2960011
1127.10 0.295936
1127.20 0.2958709
1127.30 0.2958058
1127.40 0.2957407
1127.50 0.2956756
1127.60 0.2956105
1127.70 0.2955454
1127.80 0.2954803
1127.90 0.2954152
1128.00 0.2953501
1128.10 0.2952849
1128.20 0.2952198
1128.30 0.2951547
1128.40 0.2950896
1128.50 0.2950245
1128.60 0.2949594
1128.70 0.2948943
1128.80 0.2948292
1128.90 0.2947715
1129.00 0.2947171
1129.10 0.2946627
1129.20 0.2946083
1129.30 0.2945538
1129.40 0.2944994
1129.50 0.294445
1129.60 0.2943905
1129.70 0.2943361
1129.80 0.2942817
1129.90 0.2942273
1130.00 0.2941728
1130.10 0.2941184
1130.20 0.294064
1130.30 0.2940095
1130.40 0.2939551
1130.50 0.2939006
1130.60 0.2938462
1130.70 0.2937918
1130.80 0.2937373
1130.90 0.2936829
1131.00 0.2936285
1131.10 0.293574
1131.20 0.2935196
1131.30 0.2934651
1131.40 0.2934107
1131.50 0.2933562
1131.60 0.2933018
1131.70 0.2932474
1131.80 0.2931929
1131.90 0.2931385
1132.00 0.293084
1132.10 0.2930296
1132.20 0.2929751
1132.30 0.2929207
1132.40 0.2928662
1132.50 0.2928118
1132.60 0.2927573
1132.70 0.2927029
1132.80 0.2926484
1132.90 0.292594
1133.00 0.2925395
1133.10 0.2924851
1133.20 0.2924306
1133.30 0.2923761
1133.40 0.2923217
1133.50 0.2922672
1133.60 0.2922128
1133.70 0.2921583
1133.80 0.2921039
1133.90 0.2920494
1134.00 0.2919949
1134.10 0.2919405
1134.20 0.291886
1134.30 0.2918316
1134.40 0.2917771
1134.50 0.2917226
1134.60 0.2916708
1134.70 0.291619
1134.80 0.2915672
1134.90 0.2915154
1135.00 0.2914635
1135.10 0.2914117
1135.20 0.2913599
1135.30 0.2913081
1135.40 0.2912563
1135.50 0.2912045
1135.60 0.2911526
1135.70 0.2911008
1135.80 0.291049
1135.90 0.2909972
1136.00 0.2909453
1136.10 0.2908935
1136.20 0.2908417
1136.30 0.2907899
1136.40 0.290738
1136.50 0.2906862
1136.60 0.2906344
1136.70 0.2905826
1136.80 0.2905307
1136.90 0.2904789
1137.00 0.2904271
1137.10 0.2903752
1137.20 0.2903234
1137.30 0.2902716
1137.40 0.2902197
1137.50 0.2901679
1137.60 0.2901161
1137.70 0.2900642
1137.80 0.2900124
1137.90 0.2899606
1138.00 0.2899087
1138.10 0.2898569
1138.20 0.289805
1138.30 0.2897532
1138.40 0.2897014
1138.50 0.2896495
1138.60 0.2895977
1138.70 0.2895458
1138.80 0.289494
1138.90 0.2894422
1139.00 0.2893903
1139.10 0.2893385
1139.20 0.2892866
1139.30 0.2892348
1139.40 0.2891829
1139.50 0.2891311
1139.60 0.2890793
1139.70 0.2890274
1139.80 0.2889756
1139.90 0.2889237
1140.00 0.2888719
1140.10 0.28882
1140.20 0.2887733
1140.30 0.2887472
1140.40 0.288721
1140.50 0.2886949
1140.60 0.2886687
1140.70 0.2886426
1140.80 0.2886164
1140.90 0.2885903
1141.00 0.2885641
1141.10 0.288538
1141.20 0.2885118
1141.30 0.2884857
1141.40 0.2884595
1141.50 0.2884334
1141.60 0.2884072
1141.70 0.2883811
1141.80 0.2883549
1141.90 0.2883288
1142.00 0.2883026
1142.10 0.2882765
1142.20 0.2882503
1142.30 0.2882242
1142.40 0.288198
1142.50 0.2881719
1142.60 0.2881457
1142.70 0.2881196
1142.80 0.2880934
1142.90 0.2880673
1143.00 0.2880411
1143.10 0.288015
1143.20 0.2879888
1143.30 0.2879626
1143.40 0.2879365
1143.50 0.2879103
1143.60 0.2878842
1143.70 0.287858
1143.80 0.2878319
1143.90 0.2878057
1144.00 0.2877796
1144.10 0.2877534
1144.20 0.2877272
1144.30 0.2877011
1144.40 0.2876749
1144.50 0.2876488
1144.60 0.2876226
1144.70 0.2875964
1144.80 0.2875703
1144.90 0.2875441
1145.00 0.287518
1145.10 0.2874918
1145.20 0.2874656
1145.30 0.2874395
1145.40 0.2874133
1145.50 0.2873872
1145.60 0.287361
1145.70 0.2873348
1145.80 0.2873087
1145.90 0.2872825
1146.00 0.2872489
1146.10 0.2872153
1146.20 0.2871818
1146.30 0.2871482
1146.40 0.2871146
1146.50 0.287081
1146.60 0.2870474
1146.70 0.2870138
1146.80 0.2869803
1146.90 0.2869467
1147.00 0.2869131
1147.10 0.2868795
1147.20 0.2868459
1147.30 0.2868123
1147.40 0.2867787
1147.50 0.2867452
1147.60 0.2867116
1147.70 0.286678
1147.80 0.2866444
1147.90 0.2866108
1148.00 0.2865772
1148.10 0.2865436
1148.20 0.28651
1148.30 0.2864764
1148.40 0.2864429
1148.50 0.2864093
1148.60 0.2863757
1148.70 0.2863421
1148.80 0.2863085
1148.90 0.2862749
1149.00 0.2862413
1149.10 0.2862077
1149.20 0.2861741
1149.30 0.2861405
1149.40 0.2861069
1149.50 0.2860733
1149.60 0.2860397
1149.70 0.2860061
1149.80 0.2859725
1149.90 0.2859389
1150.00 0.2859053
1150.10 0.2858723
1150.20 0.2858393
1150.30 0.2858062
1150.40 0.2857732
1150.50 0.2857402
1150.60 0.2857071
1150.70 0.2856741
1150.80 0.2856411
1150.90 0.285608
1151.00 0.285575
1151.10 0.285542
1151.20 0.2855089
1151.30 0.2854759
1151.40 0.2854429
1151.50 0.2854098
1151.60 0.2853768
1151.70 0.285325
1151.80 0.2852543
1151.90 0.2851837
1152.00 0.2851131
1152.10 0.2850425
1152.20 0.2849719
1152.30 0.2849013
1152.40 0.2848306
1152.50 0.28476
1152.60 0.2846894
1152.70 0.2846188
1152.80 0.2845481
1152.90 0.2844775
1153.00 0.2844069
1153.10 0.2843363
1153.20 0.2842656
1153.30 0.284195
1153.40 0.2841244
1153.50 0.2840537
1153.60 0.2839831
1153.70 0.2839125
1153.80 0.2838418
1153.90 0.2837712
1154.00 0.2837005
1154.10 0.2836299
1154.20 0.2835593
1154.30 0.2834886
1154.40 0.283418
1154.50 0.2833473
1154.60 0.2832767
1154.70 0.283206
1154.80 0.2831354
1154.90 0.2830647
1155.00 0.2829941
1155.10 0.2829234
1155.20 0.2828528
1155.30 0.2827821
1155.40 0.2827115
1155.50 0.2826408
1155.60 0.2825702
1155.70 0.2824995
1155.80 0.2824288
1155.90 0.2823582
1156.00 0.2822875
1156.10 0.2822169
1156.20 0.2821462
1156.30 0.2820755
1156.40 0.2820049
1156.50 0.2819342
1156.60 0.2818635
1156.70 0.2817928
1156.80 0.2817222
1156.90 0.2816515
1157.00 0.2815808
1157.10 0.2815102
1157.20 0.2814395
1157.30 0.2813688
1157.40 0.2812981
1157.50 0.2812278
1157.60 0.2811577
1157.70 0.2810875
1157.80 0.2810173
1157.90 0.2809471
1158.00 0.2808769
1158.10 0.2808068
1158.20 0.2807366
1158.30 0.2806664
1158.40 0.2805962
1158.50 0.280526
1158.60 0.2804558
1158.70 0.2803856
1158.80 0.2803154
1158.90 0.2802452
1159.00 0.280175
1159.10 0.2801048
1159.20 0.2800347
1159.30 0.2799645
1159.40 0.2798943
1159.50 0.2798241
1159.60 0.2797538
1159.70 0.2796836
1159.80 0.2796134
1159.90 0.2795432
1160.00 0.279473
1160.10 0.2794028
1160.20 0.2793326
1160.30 0.2792624
1160.40 0.2791922
1160.50 0.279122
1160.60 0.2790518
1160.70 0.2789816
1160.80 0.2789113
1160.90 0.2788411
1161.00 0.2787709
1161.10 0.2787007
1161.20 0.2786305
1161.30 0.2785602
1161.40 0.27849
1161.50 0.2784198
1161.60 0.2783496
1161.70 0.2782793
1161.80 0.2782091
1161.90 0.2781389
1162.00 0.2780687
1162.10 0.2779984
1162.20 0.2779282
1162.30 0.277858
1162.40 0.2777877
1162.50 0.2777175
1162.60 0.2776473
1162.70 0.277577
1162.80 0.2775068
1162.90 0.2774365
1163.00 0.2773663
1163.10 0.2772961
1163.20 0.2772258
1163.30 0.2771784
1163.40 0.2771408
1163.50 0.2771031
1163.60 0.2770655
1163.70 0.2770279
1163.80 0.2769902
1163.90 0.2769526
1164.00 0.276915
1164.10 0.2768773
1164.20 0.2768397
1164.30 0.276802
1164.40 0.2767644
1164.50 0.2767268
1164.60 0.2766891
1164.70 0.2766515
1164.80 0.2766138
1164.90 0.2765762
1165.00 0.2765385
1165.10 0.2765009
1165.20 0.2764633
1165.30 0.2764256
1165.40 0.276388
1165.50 0.2763503
1165.60 0.2763127
1165.70 0.276275
1165.80 0.2762374
1165.90 0.2761997
1166.00 0.2761621
1166.10 0.2761244
1166.20 0.2760868
1166.30 0.2760491
1166.40 0.2760115
1166.50 0.2759738
1166.60 0.2759362
1166.70 0.2758985
1166.80 0.2758608
1166.90 0.2758232
1167.00 0.2757855
1167.10 0.2757479
1167.20 0.2757102
1167.30 0.2756726
1167.40 0.2756349
1167.50 0.2755972
1167.60 0.2755596
1167.70 0.2755219
1167.80 0.2754843
1167.90 0.2754466
1168.00 0.2754089
1168.10 0.2753713
1168.20 0.2753336
1168.30 0.2752959
1168.40 0.2752583
1168.50 0.2752206
1168.60 0.2751829
1168.70 0.2751453
1168.80 0.2751076
1168.90 0.2750699
1169.00 0.2750323
1169.10 0.2749907
1169.20 0.2749433
1169.30 0.274896
1169.40 0.2748486
1169.50 0.2748012
1169.60 0.2747538
1169.70 0.2747064
1169.80 0.2746591
1169.90 0.2746117
1170.00 0.2745643
1170.10 0.2745169
1170.20 0.2744695
1170.30 0.2744221
1170.40 0.2743747
1170.50 0.2743274
1170.60 0.27428
1170.70 0.2742326
1170.80 0.2741852
1170.90 0.2741378
1171.00 0.2740904
1171.10 0.274043
1171.20 0.2739956
1171.30 0.2739482
1171.40 0.2739008
1171.50 0.2738534
1171.60 0.273806
1171.70 0.2737586
1171.80 0.2737112
1171.90 0.2736638
1172.00 0.2736164
1172.10 0.273569
1172.20 0.2735216
1172.30 0.2734742
1172.40 0.2734268
1172.50 0.2733794
1172.60 0.273332
1172.70 0.2732846
1172.80 0.2732372
1172.90 0.2731898
1173.00 0.2731424
1173.10 0.273095
1173.20 0.2730476
1173.30 0.2730002
1173.40 0.2729528
1173.50 0.2729053
1173.60 0.2728579
1173.70 0.2728105
1173.80 0.2727631
1173.90 0.2727157
1174.00 0.2726683
1174.10 0.2726209
1174.20 0.2725734
1174.30 0.272526
1174.40 0.2724786
1174.50 0.2724312
1174.60 0.2723838
1174.70 0.2723363
1174.80 0.2722889
1174.90 0.2722415
1175.00 0.2721824
1175.10 0.2721205
1175.20 0.2720585
1175.30 0.2719965
1175.40 0.2719346
1175.50 0.2718726
1175.60 0.2718106
1175.70 0.2717486
1175.80 0.2716867
1175.90 0.2716247
1176.00 0.2715627
1176.10 0.2715007
1176.20 0.2714387
1176.30 0.2713768
1176.40 0.2713148
1176.50 0.2712528
1176.60 0.2711908
1176.70 0.2711288
1176.80 0.2710668
1176.90 0.2710048
1177.00 0.2709428
1177.10 0.2708809
1177.20 0.2708189
1177.30 0.2707569
1177.40 0.2706949
1177.50 0.2706329
1177.60 0.2705709
1177.70 0.2705089
1177.80 0.2704469
1177.90 0.2703849
1178.00 0.2703229
1178.10 0.2702609
1178.20 0.2701989
1178.30 0.2701369
1178.40 0.2700749
1178.50 0.2700129
1178.60 0.2699509
1178.70 0.2698889
1178.80 0.2698269
1178.90 0.2697649
1179.00 0.2697028
1179.10 0.2696408
1179.20 0.2695788
1179.30 0.2695168
1179.40 0.2694548
1179.50 0.2693928
1179.60 0.2693308
1179.70 0.2692688
1179.80 0.2692067
1179.90 0.2691447
1180.00 0.2690827
1180.10 0.2690207
1180.20 0.2689587
1180.30 0.2688966
1180.40 0.2688346
1180.50 0.2687726
1180.60 0.2687106
1180.70 0.2686485
1180.80 0.2685865
1180.90 0.2685358
1181.00 0.2684864
1181.10 0.268437
1181.20 0.2683875
1181.30 0.2683381
1181.40 0.2682887
1181.50 0.2682392
1181.60 0.2681898
1181.70 0.2681404
1181.80 0.2680909
1181.90 0.2680415
1182.00 0.267992
1182.10 0.2679426
1182.20 0.2678932
1182.30 0.2678437
1182.40 0.2677943
1182.50 0.2677448
1182.60 0.2676954
1182.70 0.267646
1182.80 0.2675965
1182.90 0.2675471
1183.00 0.2674976
1183.10 0.2674482
1183.20 0.2673987
1183.30 0.2673493
1183.40 0.2672998
1183.50 0.2672504
1183.60 0.2672009
1183.70 0.2671515
1183.80 0.267102
1183.90 0.2670526
1184.00 0.2670031
1184.10 0.2669537
1184.20 0.2669042
1184.30 0.2668547
1184.40 0.2668053
1184.50 0.2667558
1184.60 0.2667064
1184.70 0.2666569
1184.80 0.2666075
1184.90 0.266558
1185.00 0.2665085
1185.10 0.2664591
1185.20 0.2664096
1185.30 0.2663601
1185.40 0.2663107
1185.50 0.2662612
1185.60 0.2662117
1185.70 0.2661623
1185.80 0.2661128
1185.90 0.2660633
1186.00 0.2660139
1186.10 0.2659644
1186.20 0.2659149
1186.30 0.2658654
1186.40 0.265816
1186.50 0.2657665
1186.60 0.265717
1186.70 0.2656675
1186.80 0.2656217
1186.90 0.2655775
1187.00 0.2655332
1187.10 0.265489
1187.20 0.2654447
1187.30 0.2654005
1187.40 0.2653562
1187.50 0.2653119
1187.60 0.2652677
1187.70 0.2652234
1187.80 0.2651792
1187.90 0.2651349
1188.00 0.2650906
1188.10 0.2650464
1188.20 0.2650021
1188.30 0.2649579
1188.40 0.2649136
1188.50 0.2648693
1188.60 0.2648251
1188.70 0.2647808
1188.80 0.2647365
1188.90 0.2646923
1189.00 0.264648
1189.10 0.2646037
1189.20 0.2645595
1189.30 0.2645152
1189.40 0.2644709
1189.50 0.2644267
1189.60 0.2643824
1189.70 0.2643381
1189.80 0.2642938
1189.90 0.2642496
1190.00 0.2642053
1190.10 0.264161
1190.20 0.2641167
1190.30 0.2640725
1190.40 0.2640282
1190.50 0.2639839
1190.60 0.2639396
1190.70 0.2638953
1190.80 0.2638511
1190.90 0.2638068
1191.00 0.2637625
1191.10 0.2637182
1191.20 0.2636739
1191.30 0.2636296
1191.40 0.2635854
1191.50 0.2635411
1191.60 0.2634968
1191.70 0.2634525
1191.80 0.2634082
1191.90 0.2633639
1192.00 0.2633196
1192.10 0.2632753
1192.20 0.2632311
1192.30 0.2631868
1192.40 0.2631425
1192.50 0.2630982
1192.60 0.2630539
1192.70 0.2630077
1192.80 0.2629441
1192.90 0.2628805
1193.00 0.2628168
1193.10 0.2627532
1193.20 0.2626896
1193.30 0.262626
1193.40 0.2625624
1193.50 0.2624988
1193.60 0.2624352
1193.70 0.2623716
1193.80 0.262308
1193.90 0.2622444
1194.00 0.2621808
1194.10 0.2621171
1194.20 0.2620535
1194.30 0.2619899
1194.40 0.2619263
1194.50 0.2618627
1194.60 0.261799
1194.70 0.2617354
1194.80 0.2616718
1194.90 0.2616082
1195.00 0.2615446
1195.10 0.2614809
1195.20 0.2614173
1195.30 0.2613537
1195.40 0.26129
1195.50 0.2612264
1195.60 0.2611628
1195.70 0.2610992
1195.80 0.2610355
1195.90 0.2609719
1196.00 0.2609083
1196.10 0.2608446
1196.20 0.260781
1196.30 0.2607173
1196.40 0.2606537
1196.50 0.2605901
1196.60 0.2605264
1196.70 0.2604628
1196.80 0.2603991
1196.90 0.2603355
1197.00 0.2602718
1197.10 0.2602082
1197.20 0.2601446
1197.30 0.2600809
1197.40 0.2600173
1197.50 0.2599536
1197.60 0.25989
1197.70 0.2598263
1197.80 0.2597626
1197.90 0.259699
1198.00 0.2596353
1198.10 0.2595717
1198.20 0.259508
1198.30 0.2594444
1198.40 0.2593807
1198.50 0.259317
1198.60 0.2592534
1198.70 0.2591949
1198.80 0.2591485
1198.90 0.2591021
1199.00 0.2590557
1199.10 0.2590094
1199.20 0.258963
1199.30 0.2589166
1199.40 0.2588702
1199.50 0.2588238
1199.60 0.2587774
1199.70 0.258731
1199.80 0.2586846
1199.90 0.2586382
1200.00 0.2585918
